Time,Timestamp,Counter,Interpolated,Contact Quality,AF3,T7,Pz,T8,AF4
1722054623.8356,2024-07-26 21:30:23.835,86,false,0.0,4230.385, 4376.154, 4109.744, 4188.846, 4245.0
1722054623.8434,2024-07-26 21:30:23.843,87,false,0.0,4221.923, 4374.744, 4105.385, 4189.103, 4238.974
1722054623.8512,2024-07-26 21:30:23.851,88,false,0.0,4218.846, 4359.359, 4096.795, 4182.82, 4233.718
1722054623.859,2024-07-26 21:30:23.859,89,false,0.0,4225.385, 4359.615, 4105.513, 4190.641, 4236.923
1722054623.8668,2024-07-26 21:30:23.866,90,false,0.0,4232.436, 4383.846, 4116.282, 4201.026, 4246.923
1722054623.8746,2024-07-26 21:30:23.874,91,false,0.0,4220.897, 4379.359, 4101.667, 4185.641, 4240.385
1722054623.8824,2024-07-26 21:30:23.882,92,false,0.0,4212.949, 4366.154, 4092.821, 4172.308, 4228.333
1722054623.8903,2024-07-26 21:30:23.890,93,false,0.0,4228.077, 4390.641, 4110.513, 4184.872, 4238.205
1722054623.8981,2024-07-26 21:30:23.898,94,false,0.0,4232.949, 4394.615, 4114.231, 4193.077, 4246.41
1722054623.9059,2024-07-26 21:30:23.905,95,false,0.0,4228.077, 4366.154, 4103.205, 4191.667, 4242.82
1722054623.9137,2024-07-26 21:30:23.913,96,false,0.0,4244.744, 4380.897, 4113.718, 4202.436, 4257.82
1722054623.9215,2024-07-26 21:30:23.921,97,false,0.0,4254.872, 4408.333, 4125.0, 4208.59, 4269.872
1722054623.9293,2024-07-26 21:30:23.929,98,false,0.0,4239.872, 4387.564, 4117.436, 4198.974, 4253.718
1722054623.9371,2024-07-26 21:30:23.937,99,false,0.0,4238.205, 4367.82, 4113.333, 4194.615, 4247.949
1722054623.9449,2024-07-26 21:30:23.944,100,false,0.0,4248.59, 4371.282, 4107.436, 4193.077, 4258.718
1722054623.9528,2024-07-26 21:30:23.952,101,false,0.0,4242.308, 4368.59, 4095.641, 4184.359, 4252.564
1722054623.9606,2024-07-26 21:30:23.960,102,false,0.0,4232.564, 4375.769, 4100.0, 4184.231, 4242.82
1722054623.9684,2024-07-26 21:30:23.968,103,false,0.0,4230.897, 4386.282, 4105.769, 4188.718, 4242.949
1722054623.9762,2024-07-26 21:30:23.976,104,false,0.0,4227.564, 4377.436, 4097.308, 4181.026, 4239.744
1722054623.984,2024-07-26 21:30:23.984,105,false,0.0,4226.154, 4377.051, 4095.513, 4177.308, 4243.333
1722054623.9918,2024-07-26 21:30:23.991,106,false,0.0,4231.539, 4383.461, 4098.205, 4185.513, 4258.974
1722054623.9996,2024-07-26 21:30:23.999,107,false,0.0,4239.615, 4371.923, 4092.692, 4186.282, 4267.18
1722054624.0074,2024-07-26 21:30:24.007,108,false,0.0,4243.59, 4365.769, 4090.513, 4179.744, 4260.0
1722054624.0153,2024-07-26 21:30:24.015,109,false,0.0,4238.718, 4370.769, 4093.718, 4178.846, 4247.82
1722054624.0231,2024-07-26 21:30:24.023,110,false,0.0,4237.051, 4367.308, 4100.513, 4181.154, 4248.846
1722054624.0309,2024-07-26 21:30:24.030,111,false,0.0,4244.359, 4365.0, 4110.0, 4182.18, 4261.154
1722054624.0387,2024-07-26 21:30:24.038,112,false,0.0,4244.103, 4368.333, 4108.333, 4182.564, 4258.59
1722054624.0465,2024-07-26 21:30:24.046,113,false,0.0,4237.18, 4372.82, 4103.077, 4183.59, 4250.385
1722054624.0543,2024-07-26 21:30:24.054,114,false,0.0,4236.795, 4382.308, 4108.974, 4188.718, 4256.282
1722054624.0621,2024-07-26 21:30:24.062,115,false,0.0,4238.205, 4385.769, 4111.154, 4191.667, 4252.949
1722054624.0699,2024-07-26 21:30:24.069,116,false,0.0,4240.769, 4379.103, 4108.461, 4187.82, 4242.051
1722054624.0778,2024-07-26 21:30:24.077,117,false,0.0,4243.59, 4372.949, 4109.231, 4186.539, 4247.692
1722054624.0856,2024-07-26 21:30:24.085,118,false,0.0,4234.487, 4367.18, 4099.744, 4186.923, 4247.436
1722054624.0934,2024-07-26 21:30:24.093,119,false,0.0,4223.59, 4365.385, 4086.41, 4182.308, 4233.333
1722054624.1012,2024-07-26 21:30:24.101,120,false,0.0,4226.795, 4368.333, 4087.821, 4182.436, 4236.026
1722054624.109,2024-07-26 21:30:24.109,121,false,0.0,4234.615, 4366.923, 4095.128, 4190.0, 4247.564
1722054624.1168,2024-07-26 21:30:24.116,122,false,0.0,4238.718, 4368.333, 4105.385, 4191.026, 4249.231
1722054624.1246,2024-07-26 21:30:24.124,123,false,0.0,4241.154, 4368.59, 4116.795, 4187.436, 4251.282
1722054624.1324,2024-07-26 21:30:24.132,124,false,0.0,4240.769, 4358.205, 4117.436, 4190.897, 4255.897
1722054624.1403,2024-07-26 21:30:24.140,125,false,0.0,4240.0, 4356.667, 4116.282, 4196.026, 4260.128
1722054624.1481,2024-07-26 21:30:24.148,126,false,0.0,4238.718, 4365.128, 4117.564, 4192.564, 4262.564
1722054624.1559,2024-07-26 21:30:24.155,127,false,0.0,4234.615, 4366.923, 4112.82, 4183.974, 4254.231
1722054624.1637,2024-07-26 21:30:24.163,0,false,0.0,4231.795, 4372.18, 4118.461, 4179.103, 4244.744
1722054624.1715,2024-07-26 21:30:24.171,1,false,0.0,4232.18, 4377.949, 4133.205, 4184.231, 4247.949
1722054624.1793,2024-07-26 21:30:24.179,2,false,0.0,4235.641, 4374.744, 4133.333, 4196.026, 4254.359
1722054624.1871,2024-07-26 21:30:24.187,3,false,0.0,4240.769, 4378.205, 4130.769, 4201.154, 4256.154
1722054624.1949,2024-07-26 21:30:24.194,4,false,0.0,4238.205, 4382.308, 4130.385, 4195.0, 4252.949
1722054624.2028,2024-07-26 21:30:24.202,5,false,0.0,4232.18, 4374.872, 4116.41, 4187.692, 4247.18
1722054624.2106,2024-07-26 21:30:24.210,6,false,0.0,4235.128, 4369.231, 4109.359, 4185.769, 4250.897
1722054624.2184,2024-07-26 21:30:24.218,7,false,0.0,4237.436, 4358.461, 4118.461, 4185.513, 4256.154
1722054624.2262,2024-07-26 21:30:24.226,8,false,0.0,4233.461, 4342.564, 4118.461, 4184.487, 4247.692
1722054624.234,2024-07-26 21:30:24.234,9,false,0.0,4233.974, 4351.795, 4116.282, 4184.872, 4242.18
1722054624.2418,2024-07-26 21:30:24.241,10,false,0.0,4233.718, 4373.59, 4123.077, 4186.026, 4245.256
1722054624.2496,2024-07-26 21:30:24.249,11,false,0.0,4222.692, 4373.205, 4119.359, 4182.564, 4235.128
1722054624.2574,2024-07-26 21:30:24.257,12,false,0.0,4207.436, 4362.82, 4105.513, 4172.82, 4216.41
1722054624.2653,2024-07-26 21:30:24.265,13,false,0.0,4198.333, 4363.846, 4097.308, 4166.795, 4211.539
1722054624.2731,2024-07-26 21:30:24.273,14,false,0.0,4202.308, 4371.667, 4096.923, 4175.128, 4224.359
1722054624.2809,2024-07-26 21:30:24.280,15,false,0.0,4217.308, 4374.615, 4104.872, 4191.923, 4243.205
1722054624.2887,2024-07-26 21:30:24.288,16,false,0.0,4228.846, 4369.103, 4112.949, 4201.41, 4250.513
1722054624.2965,2024-07-26 21:30:24.296,17,false,0.0,4230.897, 4369.103, 4116.795, 4200.256, 4249.103
1722054624.3043,2024-07-26 21:30:24.304,18,false,0.0,4231.282, 4380.0, 4125.128, 4199.487, 4258.205
1722054624.3121,2024-07-26 21:30:24.312,19,false,0.0,4230.256, 4380.128, 4124.872, 4197.564, 4262.82
1722054624.3199,2024-07-26 21:30:24.319,20,false,0.0,4220.128, 4362.436, 4107.692, 4184.231, 4246.923
1722054624.3278,2024-07-26 21:30:24.327,21,false,0.0,4208.974, 4352.564, 4103.333, 4177.949, 4242.308
1722054624.3356,2024-07-26 21:30:24.335,22,false,0.0,4211.667, 4365.128, 4111.539, 4192.82, 4253.461
1722054624.3434,2024-07-26 21:30:24.343,23,false,0.0,4214.359, 4376.539, 4099.744, 4193.974, 4241.667
1722054624.3512,2024-07-26 21:30:24.351,24,false,0.0,4198.974, 4363.974, 4082.051, 4170.897, 4220.256
1722054624.359,2024-07-26 21:30:24.359,25,false,0.0,4189.487, 4351.026, 4085.128, 4167.436, 4226.41
1722054624.3668,2024-07-26 21:30:24.366,26,false,0.0,4196.539, 4361.667, 4089.487, 4179.103, 4236.539
1722054624.3746,2024-07-26 21:30:24.374,27,false,0.0,4192.82, 4369.103, 4079.231, 4170.641, 4229.872
1722054624.3824,2024-07-26 21:30:24.382,28,false,0.0,4189.103, 4357.949, 4072.308, 4166.923, 4232.308
1722054624.3903,2024-07-26 21:30:24.390,29,false,0.0,4206.795, 4355.513, 4076.795, 4185.513, 4247.051
1722054624.3981,2024-07-26 21:30:24.398,30,false,0.0,4214.103, 4364.487, 4080.513, 4191.41, 4250.641
1722054624.4059,2024-07-26 21:30:24.405,31,false,0.0,4200.513, 4357.051, 4077.436, 4178.077, 4244.872
1722054624.4137,2024-07-26 21:30:24.413,32,false,0.0,4194.487, 4338.846, 4073.846, 4167.308, 4241.41
1722054624.4215,2024-07-26 21:30:24.421,33,false,0.0,4194.103, 4342.18, 4076.539, 4168.077, 4245.897
1722054624.4293,2024-07-26 21:30:24.429,34,false,0.0,4194.615, 4362.949, 4082.436, 4182.18, 4255.0
1722054624.4371,2024-07-26 21:30:24.437,35,false,0.0,4199.615, 4363.077, 4079.487, 4185.385, 4247.692
1722054624.4449,2024-07-26 21:30:24.444,36,false,0.0,4190.128, 4343.205, 4069.231, 4164.487, 4225.256
1722054624.4528,2024-07-26 21:30:24.452,37,false,0.0,4182.051, 4346.282, 4073.59, 4161.539, 4225.641
1722054624.4606,2024-07-26 21:30:24.460,38,false,0.0,4205.513, 4376.795, 4097.436, 4184.487, 4253.718
1722054624.4684,2024-07-26 21:30:24.468,39,false,0.0,4222.308, 4389.744, 4111.154, 4188.846, 4271.539
1722054624.4762,2024-07-26 21:30:24.476,40,false,0.0,4208.846, 4368.846, 4102.564, 4180.385, 4267.692
1722054624.484,2024-07-26 21:30:24.484,41,false,0.0,4208.974, 4354.872, 4097.692, 4186.923, 4268.59
1722054624.4918,2024-07-26 21:30:24.491,42,false,0.0,4228.333, 4373.461, 4107.308, 4196.41, 4288.077
1722054624.4996,2024-07-26 21:30:24.499,43,false,0.0,4232.436, 4381.539, 4110.897, 4197.692, 4301.923
1722054624.5074,2024-07-26 21:30:24.507,44,false,0.0,4220.641, 4354.359, 4104.359, 4189.615, 4286.795
1722054624.5153,2024-07-26 21:30:24.515,45,false,0.0,4206.667, 4345.513, 4102.051, 4176.282, 4265.128
1722054624.5231,2024-07-26 21:30:24.523,46,false,0.0,4197.949, 4369.487, 4104.487, 4178.718, 4262.18
1722054624.5309,2024-07-26 21:30:24.530,47,false,0.0,4203.461, 4373.205, 4107.308, 4191.026, 4267.18
1722054624.5387,2024-07-26 21:30:24.538,48,false,0.0,4218.846, 4366.667, 4111.923, 4192.692, 4283.59
1722054624.5465,2024-07-26 21:30:24.546,49,false,0.0,4235.769, 4383.846, 4111.41, 4197.051, 4317.308
1722054624.5543,2024-07-26 21:30:24.554,50,false,0.0,4251.154, 4388.59, 4106.539, 4204.872, 4337.949
1722054624.5621,2024-07-26 21:30:24.562,51,false,0.0,4261.154, 4371.41, 4115.897, 4203.718, 4348.205
1722054624.5699,2024-07-26 21:30:24.569,52,false,0.0,4275.769, 4369.359, 4132.949, 4210.0, 4384.487
1722054624.5778,2024-07-26 21:30:24.577,53,false,0.0,4297.82, 4367.692, 4131.923, 4219.744, 4420.769
1722054624.5856,2024-07-26 21:30:24.585,54,false,0.0,4302.692, 4350.385, 4123.974, 4215.769, 4418.718
1722054624.5934,2024-07-26 21:30:24.593,55,false,0.0,4285.0, 4347.692, 4127.564, 4214.103, 4402.564
1722054624.6012,2024-07-26 21:30:24.601,56,false,0.0,4269.615, 4352.949, 4126.795, 4213.846, 4390.128
1722054624.609,2024-07-26 21:30:24.609,57,false,0.0,4264.744, 4342.308, 4119.231, 4206.539, 4379.103
1722054624.6168,2024-07-26 21:30:24.616,58,false,0.0,4266.154, 4344.359, 4121.923, 4214.615, 4383.974
1722054624.6246,2024-07-26 21:30:24.624,59,false,0.0,4268.205, 4368.974, 4123.974, 4224.359, 4392.436
1722054624.6324,2024-07-26 21:30:24.632,60,false,0.0,4260.385, 4371.539, 4116.41, 4210.769, 4376.282
1722054624.6403,2024-07-26 21:30:24.640,61,false,0.0,4245.897, 4350.128, 4111.923, 4204.487, 4352.18
1722054624.6481,2024-07-26 21:30:24.648,62,false,0.0,4235.256, 4346.026, 4107.949, 4211.795, 4339.744
1722054624.6559,2024-07-26 21:30:24.655,63,false,0.0,4226.282, 4348.974, 4102.051, 4204.872, 4330.128
1722054624.6637,2024-07-26 21:30:24.663,64,false,0.0,4220.128, 4341.154, 4107.82, 4198.974, 4322.18
1722054624.6715,2024-07-26 21:30:24.671,65,false,0.0,4216.923, 4352.692, 4118.59, 4200.513, 4317.436
1722054624.6793,2024-07-26 21:30:24.679,66,false,0.0,4209.231, 4372.949, 4118.59, 4192.051, 4312.18
1722054624.6871,2024-07-26 21:30:24.687,67,false,0.0,4203.974, 4358.846, 4110.385, 4189.744, 4310.0
1722054624.6949,2024-07-26 21:30:24.694,68,false,0.0,4206.667, 4340.385, 4101.282, 4198.333, 4304.872
1722054624.7028,2024-07-26 21:30:24.702,69,false,0.0,4203.461, 4346.923, 4097.564, 4196.282, 4290.128
1722054624.7106,2024-07-26 21:30:24.710,70,false,0.0,4196.154, 4347.308, 4100.385, 4193.718, 4279.359
1722054624.7184,2024-07-26 21:30:24.718,71,false,0.0,4195.641, 4344.103, 4100.256, 4199.487, 4278.333
1722054624.7262,2024-07-26 21:30:24.726,72,false,0.0,4192.949, 4350.0, 4101.026, 4200.256, 4279.103
1722054624.734,2024-07-26 21:30:24.734,73,false,0.0,4187.18, 4346.667, 4112.436, 4201.154, 4279.872
1722054624.7418,2024-07-26 21:30:24.741,74,false,0.0,4189.872, 4352.308, 4123.846, 4203.461, 4276.026
1722054624.7496,2024-07-26 21:30:24.749,75,false,0.0,4190.513, 4371.154, 4121.923, 4192.949, 4264.615
1722054624.7574,2024-07-26 21:30:24.757,76,false,0.0,4181.154, 4358.59, 4109.615, 4180.0, 4257.82
1722054624.7653,2024-07-26 21:30:24.765,77,false,0.0,4176.923, 4335.897, 4098.205, 4182.82, 4257.692
1722054624.7731,2024-07-26 21:30:24.773,78,false,0.0,4183.205, 4342.051, 4097.692, 4192.436, 4253.333
1722054624.7809,2024-07-26 21:30:24.780,79,false,0.0,4190.769, 4348.205, 4105.769, 4194.359, 4253.333
1722054624.7887,2024-07-26 21:30:24.788,80,false,0.0,4196.795, 4347.82, 4113.461, 4190.513, 4265.641
1722054624.7965,2024-07-26 21:30:24.796,81,false,0.0,4196.154, 4348.974, 4116.282, 4189.231, 4268.59
1722054624.8043,2024-07-26 21:30:24.804,82,false,0.0,4186.923, 4334.872, 4108.974, 4187.949, 4252.308
1722054624.8121,2024-07-26 21:30:24.812,83,false,0.0,4181.41, 4335.897, 4097.18, 4180.0, 4240.769
1722054624.8199,2024-07-26 21:30:24.819,84,false,0.0,4183.59, 4360.128, 4097.308, 4174.359, 4243.846
1722054624.8278,2024-07-26 21:30:24.827,85,false,0.0,4186.026, 4355.385, 4108.718, 4182.18, 4249.615
1722054624.8356,2024-07-26 21:30:24.835,86,false,0.0,4190.513, 4340.385, 4116.026, 4192.692, 4256.154
1722054624.8434,2024-07-26 21:30:24.843,87,false,0.0,4191.539, 4343.205, 4107.949, 4188.59, 4254.615
1722054624.8512,2024-07-26 21:30:24.851,88,false,0.0,4179.615, 4329.487, 4085.385, 4175.0, 4236.41
1722054624.859,2024-07-26 21:30:24.859,89,false,0.0,4174.359, 4325.513, 4073.718, 4173.461, 4229.231
1722054624.8668,2024-07-26 21:30:24.866,90,false,0.0,4186.667, 4349.615, 4083.59, 4181.41, 4240.769
1722054624.8746,2024-07-26 21:30:24.874,91,false,0.0,4192.436, 4344.103, 4087.564, 4179.872, 4240.641
1722054624.8824,2024-07-26 21:30:24.882,92,false,0.0,4197.82, 4336.923, 4092.051, 4184.487, 4246.282
1722054624.8903,2024-07-26 21:30:24.890,93,false,0.0,4218.718, 4366.41, 4115.897, 4205.0, 4273.974
1722054624.8981,2024-07-26 21:30:24.898,94,false,0.0,4218.205, 4363.846, 4120.256, 4202.564, 4270.897
1722054624.9059,2024-07-26 21:30:24.905,95,false,0.0,4192.564, 4341.41, 4095.641, 4178.59, 4236.795
1722054624.9137,2024-07-26 21:30:24.913,96,false,0.0,4190.769, 4357.308, 4089.231, 4176.539, 4232.82
1722054624.9215,2024-07-26 21:30:24.921,97,false,0.0,4198.718, 4353.846, 4092.692, 4182.949, 4242.82
1722054624.9293,2024-07-26 21:30:24.929,98,false,0.0,4187.82, 4325.513, 4085.128, 4180.769, 4234.872
1722054624.9371,2024-07-26 21:30:24.937,99,false,0.0,4193.205, 4340.513, 4095.385, 4194.615, 4236.282
1722054624.9449,2024-07-26 21:30:24.944,100,false,0.0,4204.872, 4358.461, 4107.692, 4199.231, 4235.769
1722054624.9528,2024-07-26 21:30:24.952,101,false,0.0,4181.026, 4343.718, 4087.821, 4168.718, 4213.205
1722054624.9606,2024-07-26 21:30:24.960,102,false,0.0,4162.692, 4340.0, 4073.461, 4155.385, 4208.974
1722054624.9684,2024-07-26 21:30:24.968,103,false,0.0,4178.205, 4333.205, 4081.282, 4170.641, 4223.59
1722054624.9762,2024-07-26 21:30:24.976,104,false,0.0,4184.744, 4315.385, 4080.256, 4169.103, 4220.897
1722054624.984,2024-07-26 21:30:24.984,105,false,0.0,4186.154, 4336.795, 4086.923, 4167.051, 4225.128
1722054624.9918,2024-07-26 21:30:24.991,106,false,0.0,4202.308, 4367.308, 4108.333, 4183.333, 4245.128
1722054624.9996,2024-07-26 21:30:24.999,107,false,0.0,4197.692, 4356.026, 4102.949, 4180.769, 4238.59
1722054625.0074,2024-07-26 21:30:25.007,108,false,0.0,4178.59, 4345.897, 4085.0, 4167.18, 4216.795
1722054625.0153,2024-07-26 21:30:25.015,109,false,0.0,4185.256, 4358.205, 4094.231, 4173.461, 4215.513
1722054625.0231,2024-07-26 21:30:25.023,110,false,0.0,4188.59, 4353.333, 4101.026, 4170.513, 4215.385
1722054625.0309,2024-07-26 21:30:25.030,111,false,0.0,4173.718, 4341.923, 4095.513, 4159.744, 4210.0
1722054625.0387,2024-07-26 21:30:25.038,112,false,0.0,4190.256, 4358.718, 4116.923, 4186.41, 4223.846
1722054625.0465,2024-07-26 21:30:25.046,113,false,0.0,4221.667, 4379.231, 4134.615, 4210.385, 4231.154
1722054625.0543,2024-07-26 21:30:25.054,114,false,0.0,4209.359, 4370.897, 4105.897, 4177.564, 4203.205
1722054625.0621,2024-07-26 21:30:25.062,115,false,0.0,4182.564, 4352.051, 4084.359, 4148.461, 4181.026
1722054625.0699,2024-07-26 21:30:25.069,116,false,0.0,4184.872, 4346.667, 4097.436, 4165.641, 4189.359
1722054625.0778,2024-07-26 21:30:25.077,117,false,0.0,4187.18, 4345.256, 4090.0, 4170.0, 4189.872
1722054625.0856,2024-07-26 21:30:25.085,118,false,0.0,4175.385, 4342.82, 4068.077, 4152.564, 4177.308
1722054625.0934,2024-07-26 21:30:25.093,119,false,0.0,4176.282, 4349.872, 4078.205, 4163.333, 4182.436
1722054625.1012,2024-07-26 21:30:25.101,120,false,0.0,4184.744, 4358.59, 4090.641, 4182.949, 4194.231
1722054625.109,2024-07-26 21:30:25.109,121,false,0.0,4181.667, 4352.051, 4078.59, 4177.051, 4188.461
1722054625.1168,2024-07-26 21:30:25.116,122,false,0.0,4175.513, 4335.385, 4075.641, 4168.59, 4175.769
1722054625.1246,2024-07-26 21:30:25.124,123,false,0.0,4171.282, 4325.897, 4084.744, 4167.564, 4169.744
1722054625.1324,2024-07-26 21:30:25.132,124,false,0.0,4160.769, 4335.0, 4082.179, 4162.18, 4168.333
1722054625.1403,2024-07-26 21:30:25.140,125,false,0.0,4153.333, 4358.333, 4081.795, 4164.872, 4168.59
1722054625.1481,2024-07-26 21:30:25.148,126,false,0.0,4163.846, 4373.59, 4096.41, 4176.795, 4171.923
1722054625.1559,2024-07-26 21:30:25.155,127,false,0.0,4177.82, 4367.564, 4109.487, 4178.461, 4178.718
1722054625.1637,2024-07-26 21:30:25.163,0,false,0.0,4174.872, 4356.026, 4108.077, 4173.718, 4180.513
1722054625.1715,2024-07-26 21:30:25.171,1,false,0.0,4172.051, 4357.692, 4100.641, 4181.923, 4180.256
1722054625.1793,2024-07-26 21:30:25.179,2,false,0.0,4204.231, 4380.256, 4119.872, 4215.513, 4211.154
1722054625.1871,2024-07-26 21:30:25.187,3,false,0.0,4284.744, 4440.128, 4195.769, 4289.231, 4297.051
1722054625.1949,2024-07-26 21:30:25.194,4,false,0.0,4394.103, 4540.641, 4301.026, 4390.769, 4410.769
1722054625.2028,2024-07-26 21:30:25.202,5,false,0.0,4468.974, 4618.205, 4360.385, 4450.513, 4483.205
1722054625.2106,2024-07-26 21:30:25.210,6,false,0.0,4458.461, 4604.744, 4344.487, 4426.923, 4471.026
1722054625.2184,2024-07-26 21:30:25.218,7,false,0.0,4423.846, 4556.41, 4315.513, 4388.974, 4432.949
1722054625.2262,2024-07-26 21:30:25.226,8,false,0.0,4441.154, 4571.154, 4325.385, 4400.256, 4443.974
1722054625.234,2024-07-26 21:30:25.234,9,false,0.0,4461.923, 4609.103, 4336.282, 4412.308, 4461.795
1722054625.2418,2024-07-26 21:30:25.241,10,false,0.0,4446.923, 4596.282, 4329.615, 4396.923, 4446.41
1722054625.2496,2024-07-26 21:30:25.249,11,false,0.0,4455.385, 4583.718, 4350.897, 4406.923, 4455.385
1722054625.2574,2024-07-26 21:30:25.257,12,false,0.0,4480.385, 4605.641, 4376.667, 4430.385, 4483.333
1722054625.2653,2024-07-26 21:30:25.265,13,false,0.0,4466.41, 4604.103, 4360.0, 4419.872, 4473.461
1722054625.2731,2024-07-26 21:30:25.273,14,false,0.0,4456.026, 4590.385, 4351.923, 4414.872, 4466.154
1722054625.2809,2024-07-26 21:30:25.280,15,false,0.0,4476.795, 4607.82, 4372.564, 4431.026, 4484.103
1722054625.2887,2024-07-26 21:30:25.288,16,false,0.0,4479.487, 4610.385, 4363.846, 4419.231, 4474.487
1722054625.2965,2024-07-26 21:30:25.296,17,false,0.0,4480.897, 4587.949, 4340.0, 4396.539, 4459.231
1722054625.3043,2024-07-26 21:30:25.304,18,false,0.0,4508.846, 4589.487, 4337.564, 4392.949, 4475.897
1722054625.3121,2024-07-26 21:30:25.312,19,false,0.0,4515.256, 4587.436, 4327.82, 4377.692, 4478.846
1722054625.3199,2024-07-26 21:30:25.319,20,false,0.0,4500.897, 4560.769, 4313.077, 4355.256, 4459.487
1722054625.3278,2024-07-26 21:30:25.327,21,false,0.0,4505.256, 4559.872, 4313.205, 4349.615, 4453.461
1722054625.3356,2024-07-26 21:30:25.335,22,false,0.0,4504.744, 4575.513, 4309.872, 4347.564, 4454.359
1722054625.3434,2024-07-26 21:30:25.343,23,false,0.0,4495.897, 4576.41, 4309.872, 4356.667, 4457.692
1722054625.3512,2024-07-26 21:30:25.351,24,false,0.0,4504.359, 4586.41, 4313.077, 4373.205, 4466.539
1722054625.359,2024-07-26 21:30:25.359,25,false,0.0,4506.154, 4587.82, 4295.641, 4366.282, 4463.333
1722054625.3668,2024-07-26 21:30:25.366,26,false,0.0,4505.256, 4568.718, 4299.744, 4370.769, 4466.539
1722054625.3746,2024-07-26 21:30:25.374,27,false,0.0,4544.487, 4598.077, 4354.231, 4420.0, 4504.231
1722054625.3824,2024-07-26 21:30:25.382,28,false,0.0,4599.615, 4668.846, 4399.744, 4465.256, 4552.564
1722054625.3903,2024-07-26 21:30:25.390,29,false,0.0,4623.974, 4695.0, 4413.974, 4480.897, 4580.513
1722054625.3981,2024-07-26 21:30:25.398,30,false,0.0,4618.461, 4679.744, 4418.205, 4480.256, 4580.641
1722054625.4059,2024-07-26 21:30:25.405,31,false,0.0,4598.59, 4666.026, 4406.539, 4465.513, 4564.487
1722054625.4137,2024-07-26 21:30:25.413,32,false,0.0,4587.564, 4663.718, 4398.59, 4462.18, 4555.513
1722054625.4215,2024-07-26 21:30:25.421,33,false,0.0,4595.128, 4687.436, 4412.436, 4475.128, 4552.692
1722054625.4293,2024-07-26 21:30:25.429,34,false,0.0,4596.026, 4707.82, 4413.077, 4468.333, 4543.59
1722054625.4371,2024-07-26 21:30:25.437,35,false,0.0,4586.41, 4682.692, 4398.333, 4456.154, 4541.667
1722054625.4449,2024-07-26 21:30:25.444,36,false,0.0,4581.539, 4658.333, 4393.461, 4463.333, 4546.923
1722054625.4528,2024-07-26 21:30:25.452,37,false,0.0,4571.667, 4662.051, 4385.641, 4464.103, 4541.282
1722054625.4606,2024-07-26 21:30:25.460,38,false,0.0,4557.051, 4646.923, 4373.718, 4453.077, 4527.692
1722054625.4684,2024-07-26 21:30:25.468,39,false,0.0,4550.128, 4626.923, 4372.051, 4445.256, 4513.718
1722054625.4762,2024-07-26 21:30:25.476,40,false,0.0,4549.744, 4640.0, 4371.539, 4440.385, 4509.359
1722054625.484,2024-07-26 21:30:25.484,41,false,0.0,4561.923, 4653.461, 4374.615, 4447.564, 4529.744
1722054625.4918,2024-07-26 21:30:25.491,42,false,0.0,4579.231, 4650.641, 4382.949, 4456.41, 4552.308
1722054625.4996,2024-07-26 21:30:25.499,43,false,0.0,4572.051, 4647.051, 4377.051, 4443.718, 4547.436
1722054625.5074,2024-07-26 21:30:25.507,44,false,0.0,4547.436, 4630.256, 4366.026, 4428.461, 4528.077
1722054625.5153,2024-07-26 21:30:25.515,45,false,0.0,4532.051, 4618.077, 4366.41, 4420.513, 4506.795
1722054625.5231,2024-07-26 21:30:25.523,46,false,0.0,4524.487, 4635.385, 4364.487, 4406.026, 4487.692
1722054625.5309,2024-07-26 21:30:25.530,47,false,0.0,4517.82, 4636.41, 4358.461, 4400.0, 4482.949
1722054625.5387,2024-07-26 21:30:25.538,48,false,0.0,4511.026, 4607.308, 4356.539, 4406.026, 4485.769
1722054625.5465,2024-07-26 21:30:25.546,49,false,0.0,4508.846, 4604.615, 4352.949, 4406.667, 4486.026
1722054625.5543,2024-07-26 21:30:25.554,50,false,0.0,4514.872, 4620.769, 4350.256, 4407.436, 4485.513
1722054625.5621,2024-07-26 21:30:25.562,51,false,0.0,4508.974, 4608.333, 4345.385, 4404.359, 4474.615
1722054625.5699,2024-07-26 21:30:25.569,52,false,0.0,4491.026, 4589.744, 4329.744, 4390.641, 4462.564
1722054625.5778,2024-07-26 21:30:25.577,53,false,0.0,4494.615, 4592.949, 4324.231, 4388.461, 4473.077
1722054625.5856,2024-07-26 21:30:25.585,54,false,0.0,4505.0, 4597.308, 4335.0, 4392.82, 4482.436
1722054625.5934,2024-07-26 21:30:25.593,55,false,0.0,4491.154, 4593.846, 4334.231, 4383.077, 4469.103
1722054625.6012,2024-07-26 21:30:25.601,56,false,0.0,4485.769, 4597.82, 4330.128, 4380.769, 4463.461
1722054625.609,2024-07-26 21:30:25.609,57,false,0.0,4499.103, 4611.923, 4343.59, 4393.077, 4474.103
1722054625.6168,2024-07-26 21:30:25.616,58,false,0.0,4489.487, 4608.846, 4342.692, 4389.231, 4472.949
1722054625.6246,2024-07-26 21:30:25.624,59,false,0.0,4465.897, 4576.41, 4312.949, 4369.744, 4456.795
1722054625.6324,2024-07-26 21:30:25.632,60,false,0.0,4462.692, 4563.59, 4297.436, 4363.205, 4445.385
1722054625.6403,2024-07-26 21:30:25.640,61,false,0.0,4469.359, 4585.769, 4306.795, 4374.744, 4448.461
1722054625.6481,2024-07-26 21:30:25.648,62,false,0.0,4473.205, 4582.564, 4308.59, 4385.256, 4455.897
1722054625.6559,2024-07-26 21:30:25.655,63,false,0.0,4477.18, 4561.282, 4301.282, 4381.923, 4453.974
1722054625.6637,2024-07-26 21:30:25.663,64,false,0.0,4471.539, 4567.308, 4296.795, 4373.461, 4448.077
1722054625.6715,2024-07-26 21:30:25.671,65,false,0.0,4458.205, 4557.949, 4287.692, 4371.282, 4445.897
1722054625.6793,2024-07-26 21:30:25.679,66,false,0.0,4448.974, 4520.513, 4276.923, 4370.0, 4438.461
1722054625.6871,2024-07-26 21:30:25.687,67,false,0.0,4433.59, 4510.897, 4268.718, 4362.692, 4421.923
1722054625.6949,2024-07-26 21:30:25.694,68,false,0.0,4415.256, 4521.026, 4257.051, 4351.41, 4407.308
1722054625.7028,2024-07-26 21:30:25.702,69,false,0.0,4419.487, 4536.923, 4255.897, 4343.205, 4406.026
1722054625.7106,2024-07-26 21:30:25.710,70,false,0.0,4431.41, 4562.436, 4265.513, 4338.974, 4410.256
1722054625.7184,2024-07-26 21:30:25.718,71,false,0.0,4419.359, 4548.333, 4257.692, 4332.564, 4400.641
1722054625.7262,2024-07-26 21:30:25.726,72,false,0.0,4405.256, 4513.077, 4248.718, 4330.256, 4388.461
1722054625.734,2024-07-26 21:30:25.734,73,false,0.0,4411.282, 4526.282, 4263.59, 4337.692, 4395.513
1722054625.7418,2024-07-26 21:30:25.741,74,false,0.0,4413.718, 4539.615, 4268.59, 4338.333, 4400.256
1722054625.7496,2024-07-26 21:30:25.749,75,false,0.0,4408.59, 4520.0, 4255.385, 4332.18, 4391.154
1722054625.7574,2024-07-26 21:30:25.757,76,false,0.0,4411.923, 4517.308, 4251.154, 4333.974, 4394.872
1722054625.7653,2024-07-26 21:30:25.765,77,false,0.0,4405.128, 4505.0, 4238.59, 4327.051, 4394.359
1722054625.7731,2024-07-26 21:30:25.773,78,false,0.0,4383.846, 4473.846, 4215.128, 4309.872, 4365.128
1722054625.7809,2024-07-26 21:30:25.780,79,false,0.0,4379.103, 4490.385, 4218.718, 4311.539, 4353.846
1722054625.7887,2024-07-26 21:30:25.788,80,false,0.0,4387.949, 4518.718, 4234.872, 4320.0, 4375.769
1722054625.7965,2024-07-26 21:30:25.796,81,false,0.0,4380.641, 4503.461, 4234.359, 4311.154, 4375.385
1722054625.8043,2024-07-26 21:30:25.804,82,false,0.0,4358.333, 4490.641, 4231.795, 4300.769, 4347.82
1722054625.8121,2024-07-26 21:30:25.812,83,false,0.0,4342.18, 4488.974, 4229.744, 4293.974, 4334.231
1722054625.8199,2024-07-26 21:30:25.819,84,false,0.0,4346.154, 4481.026, 4224.744, 4284.615, 4337.051
1722054625.8278,2024-07-26 21:30:25.827,85,false,0.0,4361.154, 4487.564, 4226.667, 4287.564, 4343.974
1722054625.8356,2024-07-26 21:30:25.835,86,false,0.0,4363.333, 4487.308, 4220.641, 4294.359, 4351.539
1722054625.8434,2024-07-26 21:30:25.843,87,false,0.0,4356.282, 4477.949, 4207.051, 4290.256, 4353.718
1722054625.8512,2024-07-26 21:30:25.851,88,false,0.0,4357.436, 4493.974, 4209.487, 4290.0, 4352.051
1722054625.859,2024-07-26 21:30:25.859,89,false,0.0,4353.333, 4488.974, 4207.949, 4288.59, 4345.641
1722054625.8668,2024-07-26 21:30:25.866,90,false,0.0,4341.667, 4450.385, 4194.615, 4275.897, 4337.692
1722054625.8746,2024-07-26 21:30:25.874,91,false,0.0,4345.769, 4461.154, 4201.923, 4276.154, 4344.359
1722054625.8824,2024-07-26 21:30:25.882,92,false,0.0,4352.051, 4496.026, 4213.59, 4283.974, 4350.385
1722054625.8903,2024-07-26 21:30:25.890,93,false,0.0,4340.0, 4478.974, 4206.282, 4277.692, 4334.359
1722054625.8981,2024-07-26 21:30:25.898,94,false,0.0,4334.615, 4457.949, 4206.539, 4278.59, 4325.897
1722054625.9059,2024-07-26 21:30:25.905,95,false,0.0,4335.897, 4465.128, 4203.205, 4281.923, 4330.0
1722054625.9137,2024-07-26 21:30:25.913,96,false,0.0,4319.487, 4459.231, 4177.308, 4261.539, 4317.051
1722054625.9215,2024-07-26 21:30:25.921,97,false,0.0,4310.769, 4460.385, 4173.205, 4252.82, 4309.872
1722054625.9293,2024-07-26 21:30:25.929,98,false,0.0,4320.385, 4479.487, 4186.667, 4265.897, 4317.308
1722054625.9371,2024-07-26 21:30:25.937,99,false,0.0,4312.436, 4466.667, 4170.769, 4253.333, 4301.795
1722054625.9449,2024-07-26 21:30:25.944,100,false,0.0,4304.231, 4441.539, 4161.923, 4239.487, 4291.41
1722054625.9528,2024-07-26 21:30:25.952,101,false,0.0,4320.0, 4447.436, 4185.513, 4260.0, 4315.128
1722054625.9606,2024-07-26 21:30:25.960,102,false,0.0,4314.231, 4444.872, 4182.564, 4266.282, 4315.769
1722054625.9684,2024-07-26 21:30:25.968,103,false,0.0,4290.385, 4426.154, 4154.615, 4251.154, 4291.026
1722054625.9762,2024-07-26 21:30:25.976,104,false,0.0,4303.461, 4440.256, 4156.41, 4260.0, 4297.18
1722054625.984,2024-07-26 21:30:25.984,105,false,0.0,4317.308, 4458.846, 4165.385, 4265.513, 4304.359
1722054625.9918,2024-07-26 21:30:25.991,106,false,0.0,4289.615, 4438.205, 4147.692, 4246.41, 4281.539
1722054625.9996,2024-07-26 21:30:25.999,107,false,0.0,4279.103, 4423.077, 4136.667, 4247.18, 4278.59
1722054626.0074,2024-07-26 21:30:26.007,108,false,0.0,4302.051, 4439.487, 4149.615, 4261.282, 4298.974
1722054626.0153,2024-07-26 21:30:26.015,109,false,0.0,4297.82, 4451.282, 4158.333, 4251.923, 4294.744
1722054626.0231,2024-07-26 21:30:26.023,110,false,0.0,4277.564, 4449.359, 4156.282, 4244.872, 4280.385
1722054626.0309,2024-07-26 21:30:26.030,111,false,0.0,4283.077, 4441.41, 4156.026, 4251.667, 4282.308
1722054626.0387,2024-07-26 21:30:26.038,112,false,0.0,4284.487, 4424.744, 4153.846, 4244.872, 4281.026
1722054626.0465,2024-07-26 21:30:26.046,113,false,0.0,4268.205, 4412.436, 4146.026, 4236.667, 4276.026
1722054626.0543,2024-07-26 21:30:26.054,114,false,0.0,4270.0, 4413.846, 4140.256, 4240.0, 4280.897
1722054626.0621,2024-07-26 21:30:26.062,115,false,0.0,4276.795, 4423.333, 4136.026, 4229.615, 4277.692
1722054626.0699,2024-07-26 21:30:26.069,116,false,0.0,4261.923, 4431.154, 4129.231, 4215.513, 4266.923
1722054626.0778,2024-07-26 21:30:26.077,117,false,0.0,4254.231, 4417.949, 4127.051, 4222.308, 4272.692
1722054626.0856,2024-07-26 21:30:26.085,118,false,0.0,4261.154, 4399.872, 4128.846, 4223.461, 4275.769
1722054626.0934,2024-07-26 21:30:26.093,119,false,0.0,4253.59, 4409.615, 4127.692, 4211.923, 4261.41
1722054626.1012,2024-07-26 21:30:26.101,120,false,0.0,4246.539, 4414.872, 4130.513, 4221.923, 4262.692
1722054626.109,2024-07-26 21:30:26.109,121,false,0.0,4254.615, 4394.103, 4135.256, 4233.846, 4271.795
1722054626.1168,2024-07-26 21:30:26.116,122,false,0.0,4242.949, 4390.128, 4124.872, 4211.026, 4251.154
1722054626.1246,2024-07-26 21:30:26.124,123,false,0.0,4219.744, 4398.718, 4109.872, 4192.82, 4231.41
1722054626.1324,2024-07-26 21:30:26.132,124,false,0.0,4232.692, 4394.487, 4113.333, 4210.0, 4246.026
1722054626.1403,2024-07-26 21:30:26.140,125,false,0.0,4260.385, 4401.539, 4125.641, 4222.051, 4264.744
1722054626.1481,2024-07-26 21:30:26.148,126,false,0.0,4260.897, 4403.333, 4130.256, 4216.539, 4273.846
1722054626.1559,2024-07-26 21:30:26.155,127,false,0.0,4254.359, 4383.461, 4126.923, 4219.103, 4280.769
1722054626.1637,2024-07-26 21:30:26.163,0,false,0.0,4251.41, 4394.487, 4113.974, 4213.333, 4265.641
1722054626.1715,2024-07-26 21:30:26.171,1,false,0.0,4232.051, 4416.154, 4097.564, 4189.487, 4239.872
1722054626.1793,2024-07-26 21:30:26.179,2,false,0.0,4221.026, 4388.846, 4096.154, 4188.718, 4242.308
1722054626.1871,2024-07-26 21:30:26.187,3,false,0.0,4240.641, 4373.077, 4109.103, 4212.564, 4255.513
1722054626.1949,2024-07-26 21:30:26.194,4,false,0.0,4252.692, 4399.359, 4116.667, 4213.333, 4253.59
1722054626.2028,2024-07-26 21:30:26.202,5,false,0.0,4242.692, 4391.154, 4113.846, 4194.872, 4256.282
1722054626.2106,2024-07-26 21:30:26.210,6,false,0.0,4242.692, 4367.564, 4112.436, 4195.128, 4263.461
1722054626.2184,2024-07-26 21:30:26.218,7,false,0.0,4250.385, 4395.513, 4117.308, 4203.205, 4255.385
1722054626.2262,2024-07-26 21:30:26.226,8,false,0.0,4242.051, 4415.513, 4116.539, 4193.59, 4240.641
1722054626.234,2024-07-26 21:30:26.234,9,false,0.0,4232.436, 4385.385, 4105.897, 4185.0, 4230.897
1722054626.2418,2024-07-26 21:30:26.241,10,false,0.0,4243.205, 4371.154, 4105.0, 4197.308, 4233.846
1722054626.2496,2024-07-26 21:30:26.249,11,false,0.0,4259.231, 4383.718, 4118.333, 4210.256, 4251.539
1722054626.2574,2024-07-26 21:30:26.257,12,false,0.0,4256.282, 4381.154, 4119.231, 4203.59, 4253.59
1722054626.2653,2024-07-26 21:30:26.265,13,false,0.0,4242.949, 4383.974, 4106.282, 4194.359, 4236.41
1722054626.2731,2024-07-26 21:30:26.273,14,false,0.0,4241.282, 4396.026, 4103.461, 4196.795, 4238.077
1722054626.2809,2024-07-26 21:30:26.280,15,false,0.0,4241.026, 4381.795, 4105.769, 4196.026, 4242.308
1722054626.2887,2024-07-26 21:30:26.288,16,false,0.0,4230.0, 4371.795, 4104.231, 4192.051, 4224.744
1722054626.2965,2024-07-26 21:30:26.296,17,false,0.0,4227.82, 4388.461, 4110.385, 4196.539, 4226.41
1722054626.3043,2024-07-26 21:30:26.304,18,false,0.0,4232.692, 4381.154, 4112.436, 4194.487, 4241.282
1722054626.3121,2024-07-26 21:30:26.312,19,false,0.0,4222.692, 4360.256, 4097.949, 4181.923, 4224.615
1722054626.3199,2024-07-26 21:30:26.319,20,false,0.0,4213.718, 4372.564, 4090.385, 4182.949, 4213.205
1722054626.3278,2024-07-26 21:30:26.327,21,false,0.0,4217.82, 4372.692, 4095.769, 4191.026, 4233.59
1722054626.3356,2024-07-26 21:30:26.335,22,false,0.0,4217.18, 4345.769, 4096.41, 4188.333, 4240.256
1722054626.3434,2024-07-26 21:30:26.343,23,false,0.0,4216.41, 4358.077, 4098.077, 4187.051, 4232.564
1722054626.3512,2024-07-26 21:30:26.351,24,false,0.0,4219.487, 4389.103, 4102.949, 4188.59, 4233.077
1722054626.359,2024-07-26 21:30:26.359,25,false,0.0,4207.692, 4376.667, 4098.205, 4182.692, 4224.103
1722054626.3668,2024-07-26 21:30:26.366,26,false,0.0,4192.692, 4352.308, 4090.897, 4180.385, 4216.41
1722054626.3746,2024-07-26 21:30:26.374,27,false,0.0,4192.564, 4353.205, 4090.513, 4185.128, 4222.949
1722054626.3824,2024-07-26 21:30:26.382,28,false,0.0,4193.333, 4365.513, 4097.564, 4186.923, 4216.41
1722054626.3903,2024-07-26 21:30:26.390,29,false,0.0,4193.205, 4375.385, 4110.385, 4187.564, 4207.308
1722054626.3981,2024-07-26 21:30:26.398,30,false,0.0,4196.795, 4365.769, 4107.692, 4183.846, 4213.974
1722054626.4059,2024-07-26 21:30:26.405,31,false,0.0,4192.692, 4342.308, 4087.949, 4171.795, 4207.692
1722054626.4137,2024-07-26 21:30:26.413,32,false,0.0,4190.256, 4342.051, 4090.897, 4166.282, 4198.333
1722054626.4215,2024-07-26 21:30:26.421,33,false,0.0,4204.744, 4362.436, 4114.615, 4177.18, 4220.128
1722054626.4293,2024-07-26 21:30:26.429,34,false,0.0,4214.103, 4375.385, 4115.128, 4190.0, 4236.41
1722054626.4371,2024-07-26 21:30:26.437,35,false,0.0,4202.82, 4375.897, 4096.795, 4186.795, 4214.615
1722054626.4449,2024-07-26 21:30:26.444,36,false,0.0,4191.282, 4361.923, 4089.487, 4173.077, 4197.436
1722054626.4528,2024-07-26 21:30:26.452,37,false,0.0,4193.461, 4344.744, 4089.872, 4171.154, 4209.615
1722054626.4606,2024-07-26 21:30:26.460,38,false,0.0,4196.795, 4343.461, 4087.821, 4175.385, 4217.82
1722054626.4684,2024-07-26 21:30:26.468,39,false,0.0,4192.308, 4342.18, 4085.385, 4164.103, 4204.872
1722054626.4762,2024-07-26 21:30:26.476,40,false,0.0,4189.744, 4335.641, 4090.385, 4156.282, 4193.333
1722054626.484,2024-07-26 21:30:26.484,41,false,0.0,4192.949, 4342.949, 4104.359, 4171.667, 4196.41
1722054626.4918,2024-07-26 21:30:26.491,42,false,0.0,4189.359, 4350.0, 4105.769, 4181.154, 4197.436
1722054626.4996,2024-07-26 21:30:26.499,43,false,0.0,4179.359, 4340.513, 4086.154, 4169.359, 4186.026
1722054626.5074,2024-07-26 21:30:26.507,44,false,0.0,4179.103, 4335.897, 4076.41, 4158.846, 4181.41
1722054626.5153,2024-07-26 21:30:26.515,45,false,0.0,4187.436, 4344.487, 4090.128, 4160.385, 4195.128
1722054626.5231,2024-07-26 21:30:26.523,46,false,0.0,4193.077, 4348.077, 4101.667, 4172.051, 4208.205
1722054626.5309,2024-07-26 21:30:26.530,47,false,0.0,4192.18, 4332.82, 4095.513, 4181.795, 4201.154
1722054626.5387,2024-07-26 21:30:26.538,48,false,0.0,4180.897, 4313.077, 4079.744, 4168.846, 4180.513
1722054626.5465,2024-07-26 21:30:26.546,49,false,0.0,4169.359, 4324.487, 4073.846, 4152.949, 4170.897
1722054626.5543,2024-07-26 21:30:26.554,50,false,0.0,4178.333, 4350.256, 4087.308, 4167.82, 4186.41
1722054626.5621,2024-07-26 21:30:26.562,51,false,0.0,4194.487, 4342.564, 4095.641, 4186.154, 4206.41
1722054626.5699,2024-07-26 21:30:26.569,52,false,0.0,4194.103, 4330.128, 4083.333, 4180.256, 4205.897
1722054626.5778,2024-07-26 21:30:26.577,53,false,0.0,4190.897, 4345.641, 4077.564, 4176.282, 4199.615
1722054626.5856,2024-07-26 21:30:26.585,54,false,0.0,4194.487, 4339.487, 4083.974, 4178.718, 4205.256
1722054626.5934,2024-07-26 21:30:26.593,55,false,0.0,4188.461, 4312.308, 4077.564, 4167.692, 4206.282
1722054626.6012,2024-07-26 21:30:26.601,56,false,0.0,4183.077, 4323.974, 4069.872, 4165.641, 4198.846
1722054626.609,2024-07-26 21:30:26.609,57,false,0.0,4195.897, 4346.667, 4080.385, 4180.641, 4203.077
1722054626.6168,2024-07-26 21:30:26.616,58,false,0.0,4203.205, 4332.949, 4087.436, 4176.539, 4211.282
1722054626.6246,2024-07-26 21:30:26.624,59,false,0.0,4193.205, 4316.795, 4080.897, 4160.385, 4207.051
1722054626.6324,2024-07-26 21:30:26.632,60,false,0.0,4193.461, 4319.103, 4081.923, 4166.923, 4204.487
1722054626.6403,2024-07-26 21:30:26.640,61,false,0.0,4206.026, 4322.692, 4089.744, 4175.897, 4210.0
1722054626.6481,2024-07-26 21:30:26.648,62,false,0.0,4202.82, 4330.0, 4087.179, 4163.846, 4205.385
1722054626.6559,2024-07-26 21:30:26.655,63,false,0.0,4186.539, 4333.718, 4077.821, 4156.923, 4193.974
1722054626.6637,2024-07-26 21:30:26.663,64,false,0.0,4183.718, 4325.641, 4074.872, 4168.718, 4195.897
1722054626.6715,2024-07-26 21:30:26.671,65,false,0.0,4193.846, 4330.385, 4077.179, 4174.615, 4202.692
1722054626.6793,2024-07-26 21:30:26.679,66,false,0.0,4197.436, 4343.846, 4076.026, 4163.59, 4198.718
1722054626.6871,2024-07-26 21:30:26.687,67,false,0.0,4195.0, 4332.564, 4074.359, 4155.0, 4197.82
1722054626.6949,2024-07-26 21:30:26.694,68,false,0.0,4195.641, 4312.18, 4077.821, 4164.103, 4205.641
1722054626.7028,2024-07-26 21:30:26.702,69,false,0.0,4192.82, 4314.744, 4073.461, 4173.846, 4200.641
1722054626.7106,2024-07-26 21:30:26.710,70,false,0.0,4186.41, 4325.769, 4061.026, 4165.256, 4187.82
1722054626.7184,2024-07-26 21:30:26.718,71,false,0.0,4187.308, 4323.205, 4062.436, 4157.436, 4191.282
1722054626.7262,2024-07-26 21:30:26.726,72,false,0.0,4186.282, 4311.539, 4067.436, 4164.231, 4194.487
1722054626.734,2024-07-26 21:30:26.734,73,false,0.0,4180.0, 4305.897, 4054.487, 4163.846, 4184.231
1722054626.7418,2024-07-26 21:30:26.741,74,false,0.0,4186.795, 4318.718, 4047.179, 4155.641, 4187.82
1722054626.7496,2024-07-26 21:30:26.749,75,false,0.0,4194.744, 4332.564, 4054.615, 4155.128, 4198.974
1722054626.7574,2024-07-26 21:30:26.757,76,false,0.0,4179.231, 4318.205, 4046.282, 4148.077, 4186.795
1722054626.7653,2024-07-26 21:30:26.765,77,false,0.0,4165.128, 4296.154, 4031.667, 4135.385, 4175.385
1722054626.7731,2024-07-26 21:30:26.773,78,false,0.0,4178.205, 4303.205, 4040.897, 4145.641, 4190.128
1722054626.7809,2024-07-26 21:30:26.780,79,false,0.0,4194.744, 4319.487, 4058.205, 4164.231, 4203.077
1722054626.7887,2024-07-26 21:30:26.788,80,false,0.0,4189.872, 4317.308, 4060.897, 4159.487, 4199.487
1722054626.7965,2024-07-26 21:30:26.796,81,false,0.0,4174.103, 4313.718, 4053.077, 4148.718, 4192.82
1722054626.8043,2024-07-26 21:30:26.804,82,false,0.0,4167.051, 4315.385, 4042.821, 4152.18, 4184.872
1722054626.8121,2024-07-26 21:30:26.812,83,false,0.0,4165.256, 4305.385, 4035.0, 4150.0, 4177.82
1722054626.8199,2024-07-26 21:30:26.819,84,false,0.0,4154.359, 4294.359, 4031.154, 4137.18, 4177.692
1722054626.8278,2024-07-26 21:30:26.827,85,false,0.0,4151.923, 4302.308, 4036.539, 4140.641, 4181.154
1722054626.8356,2024-07-26 21:30:26.835,86,false,0.0,4172.308, 4316.154, 4053.461, 4161.539, 4188.59
1722054626.8434,2024-07-26 21:30:26.843,87,false,0.0,4180.256, 4315.256, 4058.59, 4167.18, 4199.231
1722054626.8512,2024-07-26 21:30:26.851,88,false,0.0,4163.846, 4302.692, 4039.872, 4153.974, 4209.103
1722054626.859,2024-07-26 21:30:26.859,89,false,0.0,4164.103, 4293.846, 4031.282, 4156.282, 4222.436
1722054626.8668,2024-07-26 21:30:26.866,90,false,0.0,4178.718, 4293.333, 4044.231, 4176.667, 4236.026
1722054626.8746,2024-07-26 21:30:26.874,91,false,0.0,4176.282, 4291.539, 4046.539, 4181.923, 4243.718
1722054626.8824,2024-07-26 21:30:26.882,92,false,0.0,4172.051, 4287.436, 4034.231, 4170.256, 4251.154
1722054626.8903,2024-07-26 21:30:26.890,93,false,0.0,4174.744, 4292.18, 4031.282, 4165.897, 4252.051
1722054626.8981,2024-07-26 21:30:26.898,94,false,0.0,4164.744, 4297.82, 4032.436, 4165.256, 4237.949
1722054626.9059,2024-07-26 21:30:26.905,95,false,0.0,4151.795, 4285.256, 4020.769, 4154.744, 4224.359
1722054626.9137,2024-07-26 21:30:26.913,96,false,0.0,4147.051, 4267.82, 4012.308, 4145.769, 4218.461
1722054626.9215,2024-07-26 21:30:26.921,97,false,0.0,4141.539, 4272.949, 4026.41, 4149.487, 4216.795
1722054626.9293,2024-07-26 21:30:26.929,98,false,0.0,4147.949, 4292.436, 4044.744, 4157.18, 4229.615
1722054626.9371,2024-07-26 21:30:26.937,99,false,0.0,4170.385, 4300.513, 4046.923, 4162.949, 4246.795
1722054626.9449,2024-07-26 21:30:26.944,100,false,0.0,4176.539, 4295.769, 4047.179, 4167.051, 4242.949
1722054626.9528,2024-07-26 21:30:26.952,101,false,0.0,4163.077, 4294.359, 4050.128, 4161.282, 4232.18
1722054626.9606,2024-07-26 21:30:26.960,102,false,0.0,4159.615, 4299.744, 4044.744, 4151.923, 4233.205
1722054626.9684,2024-07-26 21:30:26.968,103,false,0.0,4166.539, 4300.0, 4044.487, 4156.539, 4230.385
1722054626.9762,2024-07-26 21:30:26.976,104,false,0.0,4167.308, 4294.359, 4052.821, 4161.667, 4221.154
1722054626.984,2024-07-26 21:30:26.984,105,false,0.0,4165.385, 4298.846, 4051.282, 4151.923, 4223.077
1722054626.9918,2024-07-26 21:30:26.991,106,false,0.0,4168.846, 4312.051, 4048.846, 4153.846, 4230.128
1722054626.9996,2024-07-26 21:30:26.999,107,false,0.0,4173.974, 4308.974, 4052.692, 4172.436, 4227.436
1722054627.0074,2024-07-26 21:30:27.007,108,false,0.0,4170.256, 4287.82, 4039.615, 4170.769, 4217.308
1722054627.0153,2024-07-26 21:30:27.015,109,false,0.0,4157.949, 4281.923, 4023.333, 4151.539, 4208.974
1722054627.0231,2024-07-26 21:30:27.023,110,false,0.0,4155.256, 4302.308, 4038.205, 4150.128, 4211.41
1722054627.0309,2024-07-26 21:30:27.030,111,false,0.0,4164.231, 4312.308, 4057.179, 4155.897, 4218.846
1722054627.0387,2024-07-26 21:30:27.038,112,false,0.0,4160.128, 4293.59, 4046.795, 4144.744, 4211.795
1722054627.0465,2024-07-26 21:30:27.046,113,false,0.0,4147.18, 4283.59, 4038.077, 4134.103, 4199.359
1722054627.0543,2024-07-26 21:30:27.054,114,false,0.0,4152.051, 4296.282, 4052.051, 4143.461, 4206.539
1722054627.0621,2024-07-26 21:30:27.062,115,false,0.0,4160.0, 4292.564, 4056.282, 4158.718, 4216.795
1722054627.0699,2024-07-26 21:30:27.069,116,false,0.0,4152.18, 4276.026, 4042.308, 4161.539, 4207.949
1722054627.0778,2024-07-26 21:30:27.077,117,false,0.0,4148.718, 4282.18, 4040.256, 4155.641, 4202.308
1722054627.0856,2024-07-26 21:30:27.085,118,false,0.0,4150.769, 4287.82, 4045.897, 4148.846, 4207.564
1722054627.0934,2024-07-26 21:30:27.093,119,false,0.0,4138.718, 4273.077, 4036.795, 4141.795, 4196.795
1722054627.1012,2024-07-26 21:30:27.101,120,false,0.0,4128.974, 4271.154, 4027.692, 4138.205, 4177.308
1722054627.109,2024-07-26 21:30:27.109,121,false,0.0,4135.128, 4279.744, 4032.692, 4140.128, 4177.692
1722054627.1168,2024-07-26 21:30:27.116,122,false,0.0,4141.795, 4279.872, 4041.026, 4141.667, 4191.923
1722054627.1246,2024-07-26 21:30:27.124,123,false,0.0,4147.308, 4291.41, 4047.308, 4141.923, 4200.897
1722054627.1324,2024-07-26 21:30:27.132,124,false,0.0,4151.41, 4297.308, 4045.769, 4140.641, 4197.436
1722054627.1403,2024-07-26 21:30:27.140,125,false,0.0,4141.539, 4270.641, 4032.051, 4131.41, 4178.461
1722054627.1481,2024-07-26 21:30:27.148,126,false,0.0,4125.385, 4255.256, 4022.692, 4119.487, 4154.872
1722054627.1559,2024-07-26 21:30:27.155,127,false,0.0,4117.308, 4269.103, 4026.41, 4119.231, 4148.59
1722054627.1637,2024-07-26 21:30:27.163,0,false,0.0,4122.308, 4276.923, 4038.333, 4132.692, 4165.256
1722054627.1715,2024-07-26 21:30:27.171,1,false,0.0,4140.385, 4283.718, 4056.154, 4148.846, 4186.923
1722054627.1793,2024-07-26 21:30:27.179,2,false,0.0,4150.385, 4293.59, 4059.615, 4154.103, 4189.872
1722054627.1871,2024-07-26 21:30:27.187,3,false,0.0,4137.436, 4286.667, 4041.026, 4146.026, 4174.103
1722054627.1949,2024-07-26 21:30:27.194,4,false,0.0,4123.59, 4279.872, 4035.128, 4138.333, 4161.41
1722054627.2028,2024-07-26 21:30:27.202,5,false,0.0,4120.769, 4278.333, 4045.897, 4136.539, 4158.718
1722054627.2106,2024-07-26 21:30:27.210,6,false,0.0,4117.18, 4264.487, 4041.795, 4132.308, 4158.461
1722054627.2184,2024-07-26 21:30:27.218,7,false,0.0,4115.769, 4260.385, 4029.744, 4127.564, 4157.436
1722054627.2262,2024-07-26 21:30:27.226,8,false,0.0,4116.154, 4270.0, 4027.949, 4129.872, 4152.051
1722054627.234,2024-07-26 21:30:27.234,9,false,0.0,4115.897, 4272.949, 4033.205, 4138.205, 4148.59
1722054627.2418,2024-07-26 21:30:27.241,10,false,0.0,4126.41, 4287.564, 4048.718, 4146.795, 4161.026
1722054627.2496,2024-07-26 21:30:27.249,11,false,0.0,4135.256, 4301.026, 4060.897, 4149.487, 4174.103
1722054627.2574,2024-07-26 21:30:27.257,12,false,0.0,4122.436, 4274.231, 4045.641, 4146.667, 4162.308
1722054627.2653,2024-07-26 21:30:27.265,13,false,0.0,4107.436, 4250.641, 4023.333, 4143.461, 4140.0
1722054627.2731,2024-07-26 21:30:27.273,14,false,0.0,4106.923, 4273.205, 4022.436, 4139.744, 4133.59
1722054627.2809,2024-07-26 21:30:27.280,15,false,0.0,4113.077, 4298.974, 4035.128, 4140.0, 4141.795
1722054627.2887,2024-07-26 21:30:27.288,16,false,0.0,4122.051, 4297.308, 4045.0, 4146.41, 4150.513
1722054627.2965,2024-07-26 21:30:27.296,17,false,0.0,4125.385, 4284.359, 4042.436, 4144.487, 4148.974
1722054627.3043,2024-07-26 21:30:27.304,18,false,0.0,4120.256, 4278.974, 4030.769, 4135.641, 4140.128
1722054627.3121,2024-07-26 21:30:27.312,19,false,0.0,4121.539, 4289.615, 4026.539, 4135.385, 4137.436
1722054627.3199,2024-07-26 21:30:27.319,20,false,0.0,4120.641, 4292.051, 4023.077, 4134.615, 4139.872
1722054627.3278,2024-07-26 21:30:27.327,21,false,0.0,4105.256, 4271.539, 4009.103, 4126.539, 4135.385
1722054627.3356,2024-07-26 21:30:27.335,22,false,0.0,4103.333, 4262.051, 4007.436, 4127.436, 4132.436
1722054627.3434,2024-07-26 21:30:27.343,23,false,0.0,4123.077, 4270.641, 4023.846, 4136.026, 4141.923
1722054627.3512,2024-07-26 21:30:27.351,24,false,0.0,4132.436, 4280.897, 4032.051, 4141.026, 4151.795
1722054627.359,2024-07-26 21:30:27.359,25,false,0.0,4127.051, 4298.974, 4030.641, 4146.41, 4151.923
1722054627.3668,2024-07-26 21:30:27.366,26,false,0.0,4124.231, 4298.718, 4026.923, 4148.974, 4147.18
1722054627.3746,2024-07-26 21:30:27.374,27,false,0.0,4118.718, 4267.949, 4016.154, 4141.539, 4135.385
1722054627.3824,2024-07-26 21:30:27.382,28,false,0.0,4111.41, 4265.256, 4011.539, 4130.256, 4118.718
1722054627.3903,2024-07-26 21:30:27.390,29,false,0.0,4118.333, 4288.461, 4020.513, 4120.0, 4116.41
1722054627.3981,2024-07-26 21:30:27.398,30,false,0.0,4126.282, 4275.897, 4022.436, 4114.615, 4125.897
1722054627.4059,2024-07-26 21:30:27.405,31,false,0.0,4113.846, 4253.333, 4015.256, 4117.949, 4121.539
1722054627.4137,2024-07-26 21:30:27.413,32,false,0.0,4101.154, 4266.026, 4014.872, 4121.282, 4107.436
1722054627.4215,2024-07-26 21:30:27.421,33,false,0.0,4111.539, 4285.641, 4019.103, 4122.051, 4107.82
1722054627.4293,2024-07-26 21:30:27.429,34,false,0.0,4123.333, 4285.769, 4020.513, 4125.897, 4117.82
1722054627.4371,2024-07-26 21:30:27.437,35,false,0.0,4116.539, 4265.897, 4014.615, 4123.718, 4120.897
1722054627.4449,2024-07-26 21:30:27.444,36,false,0.0,4106.923, 4241.667, 4001.026, 4112.051, 4116.667
1722054627.4528,2024-07-26 21:30:27.452,37,false,0.0,4108.333, 4251.923, 3999.615, 4109.615, 4110.256
1722054627.4606,2024-07-26 21:30:27.460,38,false,0.0,4120.897, 4288.461, 4021.539, 4125.513, 4114.487
1722054627.4684,2024-07-26 21:30:27.468,39,false,0.0,4133.205, 4297.308, 4036.539, 4139.359, 4129.231
1722054627.4762,2024-07-26 21:30:27.476,40,false,0.0,4122.82, 4277.436, 4024.231, 4130.897, 4127.692
1722054627.484,2024-07-26 21:30:27.484,41,false,0.0,4105.256, 4267.308, 4013.974, 4117.051, 4113.718
1722054627.4918,2024-07-26 21:30:27.491,42,false,0.0,4117.18, 4274.359, 4024.744, 4127.692, 4120.769
1722054627.4996,2024-07-26 21:30:27.499,43,false,0.0,4132.692, 4277.051, 4027.436, 4144.103, 4133.974
1722054627.5074,2024-07-26 21:30:27.507,44,false,0.0,4118.59, 4267.949, 4012.821, 4134.487, 4126.923
1722054627.5153,2024-07-26 21:30:27.515,45,false,0.0,4111.026, 4271.795, 4013.718, 4125.256, 4126.795
1722054627.5231,2024-07-26 21:30:27.523,46,false,0.0,4130.0, 4286.026, 4031.282, 4141.667, 4144.231
1722054627.5309,2024-07-26 21:30:27.530,47,false,0.0,4141.026, 4275.128, 4035.385, 4153.974, 4149.487
1722054627.5387,2024-07-26 21:30:27.538,48,false,0.0,4135.641, 4265.256, 4027.692, 4146.667, 4143.205
1722054627.5465,2024-07-26 21:30:27.546,49,false,0.0,4132.564, 4289.103, 4026.282, 4139.615, 4144.231
1722054627.5543,2024-07-26 21:30:27.554,50,false,0.0,4135.128, 4293.333, 4025.513, 4134.231, 4147.18
1722054627.5621,2024-07-26 21:30:27.562,51,false,0.0,4135.385, 4270.0, 4019.615, 4126.41, 4147.18
1722054627.5699,2024-07-26 21:30:27.569,52,false,0.0,4130.897, 4278.974, 4017.692, 4128.077, 4148.461
1722054627.5778,2024-07-26 21:30:27.577,53,false,0.0,4136.539, 4297.051, 4026.539, 4136.539, 4151.667
1722054627.5856,2024-07-26 21:30:27.585,54,false,0.0,4153.205, 4288.974, 4034.231, 4137.18, 4157.18
1722054627.5934,2024-07-26 21:30:27.593,55,false,0.0,4151.026, 4290.641, 4027.308, 4131.795, 4160.897
1722054627.6012,2024-07-26 21:30:27.601,56,false,0.0,4140.897, 4296.282, 4023.718, 4134.231, 4167.564
1722054627.609,2024-07-26 21:30:27.609,57,false,0.0,4162.564, 4286.923, 4040.897, 4148.846, 4188.077
1722054627.6168,2024-07-26 21:30:27.616,58,false,0.0,4192.051, 4294.744, 4053.077, 4157.692, 4208.974
1722054627.6246,2024-07-26 21:30:27.624,59,false,0.0,4197.308, 4308.205, 4047.564, 4148.846, 4219.359
1722054627.6324,2024-07-26 21:30:27.632,60,false,0.0,4205.641, 4297.18, 4043.205, 4138.846, 4236.026
1722054627.6403,2024-07-26 21:30:27.640,61,false,0.0,4228.718, 4289.359, 4033.718, 4136.282, 4259.231
1722054627.6481,2024-07-26 21:30:27.648,62,false,0.0,4251.026, 4293.846, 4019.231, 4132.564, 4277.308
1722054627.6559,2024-07-26 21:30:27.655,63,false,0.0,4279.231, 4296.41, 4029.359, 4134.487, 4302.82
1722054627.6637,2024-07-26 21:30:27.663,64,false,0.0,4308.59, 4304.872, 4043.59, 4136.026, 4330.256
1722054627.6715,2024-07-26 21:30:27.671,65,false,0.0,4322.692, 4302.82, 4026.923, 4114.487, 4336.795
1722054627.6793,2024-07-26 21:30:27.679,66,false,0.0,4338.205, 4289.615, 4012.179, 4094.231, 4341.41
1722054627.6871,2024-07-26 21:30:27.687,67,false,0.0,4369.359, 4307.308, 4027.051, 4106.539, 4362.051
1722054627.6949,2024-07-26 21:30:27.694,68,false,0.0,4397.308, 4334.872, 4044.872, 4121.923, 4375.897
1722054627.7028,2024-07-26 21:30:27.702,69,false,0.0,4405.385, 4323.846, 4053.59, 4120.897, 4377.18
1722054627.7106,2024-07-26 21:30:27.710,70,false,0.0,4397.82, 4306.026, 4059.359, 4126.795, 4379.487
1722054627.7184,2024-07-26 21:30:27.718,71,false,0.0,4391.026, 4310.513, 4057.821, 4136.667, 4374.744
1722054627.7262,2024-07-26 21:30:27.726,72,false,0.0,4390.897, 4308.974, 4054.103, 4135.897, 4363.461
1722054627.734,2024-07-26 21:30:27.734,73,false,0.0,4383.333, 4301.41, 4055.641, 4135.641, 4358.59
1722054627.7418,2024-07-26 21:30:27.741,74,false,0.0,4369.744, 4307.308, 4058.077, 4137.692, 4351.026
1722054627.7496,2024-07-26 21:30:27.749,75,false,0.0,4360.897, 4314.231, 4060.256, 4135.897, 4337.436
1722054627.7574,2024-07-26 21:30:27.757,76,false,0.0,4344.103, 4314.872, 4060.641, 4134.103, 4329.103
1722054627.7653,2024-07-26 21:30:27.765,77,false,0.0,4319.103, 4312.308, 4053.461, 4128.333, 4320.385
1722054627.7731,2024-07-26 21:30:27.773,78,false,0.0,4306.667, 4298.077, 4042.949, 4121.154, 4302.82
1722054627.7809,2024-07-26 21:30:27.780,79,false,0.0,4297.949, 4286.539, 4037.179, 4121.667, 4286.026
1722054627.7887,2024-07-26 21:30:27.788,80,false,0.0,4280.385, 4298.718, 4035.0, 4116.41, 4273.461
1722054627.7965,2024-07-26 21:30:27.796,81,false,0.0,4268.077, 4309.744, 4030.641, 4098.718, 4258.333
1722054627.8043,2024-07-26 21:30:27.804,82,false,0.0,4264.103, 4301.923, 4028.718, 4092.436, 4243.205
1722054627.8121,2024-07-26 21:30:27.812,83,false,0.0,4257.18, 4305.897, 4035.128, 4101.154, 4231.923
1722054627.8199,2024-07-26 21:30:27.819,84,false,0.0,4243.718, 4318.59, 4037.564, 4102.308, 4220.769
1722054627.8278,2024-07-26 21:30:27.827,85,false,0.0,4230.897, 4308.205, 4032.949, 4100.513, 4215.0
1722054627.8356,2024-07-26 21:30:27.835,86,false,0.0,4234.359, 4297.564, 4043.59, 4113.718, 4225.0
1722054627.8434,2024-07-26 21:30:27.843,87,false,0.0,4240.897, 4300.641, 4055.641, 4126.026, 4230.0
1722054627.8512,2024-07-26 21:30:27.851,88,false,0.0,4218.59, 4283.846, 4035.385, 4114.359, 4202.82
1722054627.859,2024-07-26 21:30:27.859,89,false,0.0,4192.564, 4272.051, 4016.026, 4099.744, 4175.256
1722054627.8668,2024-07-26 21:30:27.866,90,false,0.0,4199.359, 4304.744, 4028.846, 4104.872, 4183.846
1722054627.8746,2024-07-26 21:30:27.874,91,false,0.0,4203.461, 4320.897, 4028.974, 4104.231, 4191.539
1722054627.8824,2024-07-26 21:30:27.882,92,false,0.0,4178.333, 4285.897, 4003.718, 4082.692, 4167.436
1722054627.8903,2024-07-26 21:30:27.890,93,false,0.0,4156.41, 4270.897, 3995.897, 4068.974, 4143.846
1722054627.8981,2024-07-26 21:30:27.898,94,false,0.0,4152.308, 4291.923, 4004.103, 4074.744, 4138.718
1722054627.9059,2024-07-26 21:30:27.905,95,false,0.0,4155.385, 4292.436, 4009.231, 4084.615, 4136.154
1722054627.9137,2024-07-26 21:30:27.913,96,false,0.0,4158.461, 4278.461, 4016.795, 4091.667, 4136.795
1722054627.9215,2024-07-26 21:30:27.921,97,false,0.0,4150.513, 4281.282, 4015.256, 4092.179, 4141.282
1722054627.9293,2024-07-26 21:30:27.929,98,false,0.0,4137.051, 4283.205, 4001.923, 4084.487, 4135.256
1722054627.9371,2024-07-26 21:30:27.937,99,false,0.0,4132.82, 4276.154, 4002.692, 4079.872, 4123.461
1722054627.9449,2024-07-26 21:30:27.944,100,false,0.0,4137.436, 4280.0, 4019.103, 4087.051, 4127.18
1722054627.9528,2024-07-26 21:30:27.952,101,false,0.0,4152.436, 4295.128, 4035.769, 4101.026, 4145.513
1722054627.9606,2024-07-26 21:30:27.960,102,false,0.0,4165.513, 4305.256, 4046.795, 4106.282, 4150.513
1722054627.9684,2024-07-26 21:30:27.968,103,false,0.0,4146.923, 4299.872, 4039.872, 4095.513, 4129.615
1722054627.9762,2024-07-26 21:30:27.976,104,false,0.0,4116.795, 4281.154, 4021.795, 4083.846, 4106.41
1722054627.984,2024-07-26 21:30:27.984,105,false,0.0,4114.744, 4265.256, 4016.026, 4079.231, 4100.385
1722054627.9918,2024-07-26 21:30:27.991,106,false,0.0,4127.82, 4263.846, 4017.949, 4080.385, 4106.667
1722054627.9996,2024-07-26 21:30:27.999,107,false,0.0,4136.667, 4273.205, 4020.897, 4097.436, 4117.949
1722054628.0074,2024-07-26 21:30:28.007,108,false,0.0,4142.692, 4285.769, 4035.641, 4116.026, 4125.513
1722054628.0153,2024-07-26 21:30:28.015,109,false,0.0,4139.872, 4297.308, 4049.615, 4111.282, 4125.0
1722054628.0231,2024-07-26 21:30:28.023,110,false,0.0,4133.205, 4300.897, 4042.821, 4102.308, 4121.923
1722054628.0309,2024-07-26 21:30:28.030,111,false,0.0,4131.282, 4286.667, 4030.513, 4103.461, 4117.82
1722054628.0387,2024-07-26 21:30:28.038,112,false,0.0,4126.923, 4267.051, 4030.641, 4101.154, 4117.18
1722054628.0465,2024-07-26 21:30:28.046,113,false,0.0,4123.59, 4268.718, 4028.333, 4102.051, 4121.667
1722054628.0543,2024-07-26 21:30:28.054,114,false,0.0,4120.385, 4280.897, 4010.385, 4100.641, 4110.128
1722054628.0621,2024-07-26 21:30:28.062,115,false,0.0,4109.359, 4283.461, 4000.769, 4086.667, 4090.769
1722054628.0699,2024-07-26 21:30:28.069,116,false,0.0,4114.744, 4297.82, 4021.41, 4091.667, 4103.846
1722054628.0778,2024-07-26 21:30:28.077,117,false,0.0,4133.718, 4314.744, 4039.231, 4107.436, 4122.564
1722054628.0856,2024-07-26 21:30:28.085,118,false,0.0,4117.436, 4292.82, 4023.205, 4087.179, 4099.872
1722054628.0934,2024-07-26 21:30:28.093,119,false,0.0,4089.231, 4269.615, 4008.333, 4070.128, 4081.667
1722054628.1012,2024-07-26 21:30:28.101,120,false,0.0,4107.692, 4289.744, 4022.692, 4098.461, 4110.513
1722054628.109,2024-07-26 21:30:28.109,121,false,0.0,4135.641, 4299.744, 4034.231, 4118.205, 4137.051
1722054628.1168,2024-07-26 21:30:28.116,122,false,0.0,4134.487, 4280.385, 4030.0, 4113.718, 4135.769
1722054628.1246,2024-07-26 21:30:28.124,123,false,0.0,4144.872, 4290.385, 4037.179, 4125.256, 4140.897
1722054628.1324,2024-07-26 21:30:28.132,124,false,0.0,4161.41, 4317.436, 4047.564, 4130.641, 4146.539
1722054628.1403,2024-07-26 21:30:28.140,125,false,0.0,4140.513, 4309.744, 4034.359, 4107.564, 4131.026
1722054628.1481,2024-07-26 21:30:28.148,126,false,0.0,4116.667, 4290.256, 4012.821, 4096.282, 4119.487
1722054628.1559,2024-07-26 21:30:28.155,127,false,0.0,4123.59, 4285.513, 4005.385, 4103.59, 4123.333
1722054628.1637,2024-07-26 21:30:28.163,0,false,0.0,4127.692, 4282.308, 4008.718, 4103.974, 4122.308
1722054628.1715,2024-07-26 21:30:28.171,1,false,0.0,4125.769, 4287.82, 4023.205, 4108.205, 4122.308
1722054628.1793,2024-07-26 21:30:28.179,2,false,0.0,4133.718, 4300.128, 4040.641, 4115.385, 4127.82
1722054628.1871,2024-07-26 21:30:28.187,3,false,0.0,4126.667, 4293.718, 4035.385, 4103.461, 4120.641
1722054628.1949,2024-07-26 21:30:28.194,4,false,0.0,4116.795, 4286.795, 4020.769, 4095.385, 4117.82
1722054628.2028,2024-07-26 21:30:28.202,5,false,0.0,4136.667, 4298.333, 4025.128, 4111.667, 4137.949
1722054628.2106,2024-07-26 21:30:28.210,6,false,0.0,4150.769, 4295.769, 4026.026, 4116.795, 4148.333
1722054628.2184,2024-07-26 21:30:28.218,7,false,0.0,4136.154, 4282.564, 4010.897, 4104.231, 4136.667
1722054628.2262,2024-07-26 21:30:28.226,8,false,0.0,4130.128, 4295.769, 4016.282, 4106.923, 4132.308
1722054628.234,2024-07-26 21:30:28.234,9,false,0.0,4137.564, 4310.385, 4041.795, 4117.692, 4140.897
1722054628.2418,2024-07-26 21:30:28.241,10,false,0.0,4142.692, 4302.82, 4052.949, 4122.949, 4152.308
1722054628.2496,2024-07-26 21:30:28.249,11,false,0.0,4146.795, 4301.026, 4048.846, 4128.205, 4155.256
1722054628.2574,2024-07-26 21:30:28.257,12,false,0.0,4133.077, 4301.282, 4036.539, 4116.539, 4135.769
1722054628.2653,2024-07-26 21:30:28.265,13,false,0.0,4115.128, 4293.718, 4022.949, 4096.667, 4121.539
1722054628.2731,2024-07-26 21:30:28.273,14,false,0.0,4131.282, 4300.256, 4026.923, 4107.18, 4141.923
1722054628.2809,2024-07-26 21:30:28.280,15,false,0.0,4145.256, 4297.82, 4032.308, 4123.846, 4156.282
1722054628.2887,2024-07-26 21:30:28.288,16,false,0.0,4125.641, 4273.974, 4018.59, 4115.128, 4139.744
1722054628.2965,2024-07-26 21:30:28.296,17,false,0.0,4121.795, 4282.436, 4016.282, 4111.923, 4130.513
1722054628.3043,2024-07-26 21:30:28.304,18,false,0.0,4135.0, 4304.615, 4029.103, 4111.026, 4133.718
1722054628.3121,2024-07-26 21:30:28.312,19,false,0.0,4124.231, 4282.692, 4023.974, 4089.231, 4126.923
1722054628.3199,2024-07-26 21:30:28.319,20,false,0.0,4119.359, 4267.949, 4020.769, 4088.846, 4128.205
1722054628.3278,2024-07-26 21:30:28.327,21,false,0.0,4142.564, 4299.359, 4042.179, 4123.333, 4148.077
1722054628.3356,2024-07-26 21:30:28.335,22,false,0.0,4154.872, 4316.795, 4053.205, 4135.897, 4160.0
1722054628.3434,2024-07-26 21:30:28.343,23,false,0.0,4143.205, 4300.513, 4042.308, 4118.333, 4151.667
1722054628.3512,2024-07-26 21:30:28.351,24,false,0.0,4128.59, 4281.795, 4035.256, 4110.256, 4137.82
1722054628.359,2024-07-26 21:30:28.359,25,false,0.0,4123.974, 4270.256, 4032.949, 4115.385, 4131.282
1722054628.3668,2024-07-26 21:30:28.366,26,false,0.0,4127.436, 4277.18, 4031.154, 4116.923, 4127.82
1722054628.3746,2024-07-26 21:30:28.374,27,false,0.0,4125.256, 4297.82, 4038.077, 4115.128, 4124.872
1722054628.3824,2024-07-26 21:30:28.382,28,false,0.0,4122.436, 4300.0, 4045.897, 4121.539, 4134.744
1722054628.3903,2024-07-26 21:30:28.390,29,false,0.0,4132.308, 4286.026, 4042.051, 4131.795, 4146.923
1722054628.3981,2024-07-26 21:30:28.398,30,false,0.0,4131.795, 4277.051, 4030.256, 4124.872, 4134.487
1722054628.4059,2024-07-26 21:30:28.405,31,false,0.0,4114.487, 4263.974, 4020.128, 4104.872, 4115.897
1722054628.4137,2024-07-26 21:30:28.413,32,false,0.0,4111.539, 4246.667, 4017.564, 4097.436, 4119.872
1722054628.4215,2024-07-26 21:30:28.421,33,false,0.0,4121.667, 4260.385, 4022.436, 4104.872, 4130.513
1722054628.4293,2024-07-26 21:30:28.429,34,false,0.0,4128.846, 4306.282, 4029.231, 4112.18, 4135.128
1722054628.4371,2024-07-26 21:30:28.437,35,false,0.0,4136.41, 4318.333, 4031.154, 4108.077, 4141.539
1722054628.4449,2024-07-26 21:30:28.444,36,false,0.0,4135.641, 4282.692, 4027.692, 4096.154, 4143.461
1722054628.4528,2024-07-26 21:30:28.452,37,false,0.0,4129.359, 4276.923, 4028.461, 4100.385, 4143.333
1722054628.4606,2024-07-26 21:30:28.460,38,false,0.0,4139.231, 4305.385, 4037.051, 4120.769, 4153.718
1722054628.4684,2024-07-26 21:30:28.468,39,false,0.0,4156.795, 4300.256, 4042.308, 4126.795, 4171.282
1722054628.4762,2024-07-26 21:30:28.476,40,false,0.0,4175.128, 4290.385, 4043.59, 4121.41, 4195.641
1722054628.484,2024-07-26 21:30:28.484,41,false,0.0,4203.205, 4313.974, 4047.436, 4123.59, 4227.564
1722054628.4918,2024-07-26 21:30:28.491,42,false,0.0,4224.872, 4314.615, 4047.821, 4120.513, 4253.846
1722054628.4996,2024-07-26 21:30:28.499,43,false,0.0,4237.308, 4293.461, 4043.333, 4111.667, 4276.154
1722054628.5074,2024-07-26 21:30:28.507,44,false,0.0,4264.231, 4305.641, 4041.282, 4112.18, 4303.333
1722054628.5153,2024-07-26 21:30:28.515,45,false,0.0,4292.18, 4319.359, 4037.692, 4108.333, 4323.974
1722054628.5231,2024-07-26 21:30:28.523,46,false,0.0,4306.026, 4306.795, 4032.308, 4095.128, 4340.641
1722054628.5309,2024-07-26 21:30:28.530,47,false,0.0,4327.949, 4302.18, 4034.359, 4097.18, 4368.205
1722054628.5387,2024-07-26 21:30:28.538,48,false,0.0,4355.513, 4302.436, 4038.333, 4115.0, 4394.103
1722054628.5465,2024-07-26 21:30:28.546,49,false,0.0,4371.026, 4298.974, 4035.385, 4124.487, 4407.051
1722054628.5543,2024-07-26 21:30:28.554,50,false,0.0,4387.18, 4315.385, 4033.59, 4120.513, 4418.59
1722054628.5621,2024-07-26 21:30:28.562,51,false,0.0,4398.333, 4327.949, 4035.256, 4112.436, 4425.641
1722054628.5699,2024-07-26 21:30:28.569,52,false,0.0,4385.769, 4304.487, 4033.333, 4109.359, 4418.974
1722054628.5778,2024-07-26 21:30:28.577,53,false,0.0,4375.897, 4284.103, 4034.103, 4115.513, 4410.0
1722054628.5856,2024-07-26 21:30:28.585,54,false,0.0,4379.744, 4298.205, 4040.256, 4118.333, 4400.641
1722054628.5934,2024-07-26 21:30:28.593,55,false,0.0,4361.154, 4316.539, 4042.308, 4109.487, 4380.513
1722054628.6012,2024-07-26 21:30:28.601,56,false,0.0,4330.769, 4315.385, 4044.872, 4109.615, 4364.231
1722054628.609,2024-07-26 21:30:28.609,57,false,0.0,4327.949, 4307.564, 4053.461, 4125.256, 4360.769
1722054628.6168,2024-07-26 21:30:28.616,58,false,0.0,4328.077, 4307.308, 4054.872, 4131.667, 4346.154
1722054628.6246,2024-07-26 21:30:28.624,59,false,0.0,4303.846, 4311.795, 4049.359, 4127.18, 4319.872
1722054628.6324,2024-07-26 21:30:28.632,60,false,0.0,4276.795, 4305.385, 4044.744, 4125.769, 4304.487
1722054628.6403,2024-07-26 21:30:28.640,61,false,0.0,4256.282, 4289.231, 4035.513, 4122.82, 4293.461
1722054628.6481,2024-07-26 21:30:28.648,62,false,0.0,4246.154, 4290.641, 4035.513, 4127.949, 4280.513
1722054628.6559,2024-07-26 21:30:28.655,63,false,0.0,4251.667, 4307.436, 4052.179, 4143.205, 4274.487
1722054628.6637,2024-07-26 21:30:28.663,64,false,0.0,4239.744, 4306.41, 4053.205, 4133.59, 4258.718
1722054628.6715,2024-07-26 21:30:28.671,65,false,0.0,4209.103, 4293.333, 4040.256, 4112.18, 4232.949
1722054628.6793,2024-07-26 21:30:28.679,66,false,0.0,4204.744, 4295.256, 4046.539, 4123.205, 4227.564
1722054628.6871,2024-07-26 21:30:28.687,67,false,0.0,4210.385, 4302.051, 4054.231, 4137.692, 4228.077
1722054628.6949,2024-07-26 21:30:28.694,68,false,0.0,4192.18, 4300.256, 4045.385, 4125.256, 4206.923
1722054628.7028,2024-07-26 21:30:28.702,69,false,0.0,4172.692, 4292.308, 4041.026, 4115.128, 4184.872
1722054628.7106,2024-07-26 21:30:28.710,70,false,0.0,4157.051, 4278.59, 4039.359, 4110.513, 4171.026
1722054628.7184,2024-07-26 21:30:28.718,71,false,0.0,4141.026, 4274.744, 4037.051, 4101.667, 4159.103
1722054628.7262,2024-07-26 21:30:28.726,72,false,0.0,4145.769, 4288.077, 4046.539, 4105.0, 4161.41
1722054628.734,2024-07-26 21:30:28.734,73,false,0.0,4153.077, 4295.641, 4050.256, 4112.051, 4163.846
1722054628.7418,2024-07-26 21:30:28.741,74,false,0.0,4139.615, 4295.128, 4043.205, 4112.564, 4148.718
1722054628.7496,2024-07-26 21:30:28.749,75,false,0.0,4131.154, 4295.385, 4043.205, 4118.59, 4139.231
1722054628.7574,2024-07-26 21:30:28.757,76,false,0.0,4126.923, 4286.41, 4036.795, 4116.154, 4135.641
1722054628.7653,2024-07-26 21:30:28.765,77,false,0.0,4109.359, 4276.41, 4025.0, 4103.205, 4118.718
1722054628.7731,2024-07-26 21:30:28.773,78,false,0.0,4098.333, 4277.051, 4032.179, 4103.974, 4111.41
1722054628.7809,2024-07-26 21:30:28.780,79,false,0.0,4100.897, 4281.539, 4035.385, 4110.128, 4122.949
1722054628.7887,2024-07-26 21:30:28.788,80,false,0.0,4102.051, 4291.667, 4022.564, 4108.077, 4121.282
1722054628.7965,2024-07-26 21:30:28.796,81,false,0.0,4100.0, 4294.615, 4021.41, 4108.077, 4107.949
1722054628.8043,2024-07-26 21:30:28.804,82,false,0.0,4095.128, 4277.436, 4022.308, 4108.461, 4108.461
1722054628.8121,2024-07-26 21:30:28.812,83,false,0.0,4100.769, 4276.667, 4019.744, 4112.82, 4121.154
1722054628.8199,2024-07-26 21:30:28.819,84,false,0.0,4118.333, 4299.231, 4040.256, 4123.333, 4132.308
1722054628.8278,2024-07-26 21:30:28.827,85,false,0.0,4111.41, 4297.18, 4057.179, 4118.59, 4131.026
1722054628.8356,2024-07-26 21:30:28.835,86,false,0.0,4089.744, 4279.872, 4043.205, 4109.359, 4118.077
1722054628.8434,2024-07-26 21:30:28.843,87,false,0.0,4097.436, 4286.154, 4038.205, 4121.282, 4115.0
1722054628.8512,2024-07-26 21:30:28.851,88,false,0.0,4105.256, 4289.103, 4042.692, 4125.897, 4119.872
1722054628.859,2024-07-26 21:30:28.859,89,false,0.0,4084.359, 4271.026, 4021.923, 4105.128, 4108.974
1722054628.8668,2024-07-26 21:30:28.866,90,false,0.0,4078.59, 4275.769, 4012.692, 4095.897, 4102.436
1722054628.8746,2024-07-26 21:30:28.874,91,false,0.0,4097.949, 4310.513, 4039.103, 4112.18, 4122.82
1722054628.8824,2024-07-26 21:30:28.882,92,false,0.0,4104.872, 4317.051, 4048.333, 4127.051, 4134.231
1722054628.8903,2024-07-26 21:30:28.890,93,false,0.0,4099.615, 4285.256, 4028.461, 4124.744, 4121.154
1722054628.8981,2024-07-26 21:30:28.898,94,false,0.0,4097.949, 4276.41, 4020.128, 4116.539, 4118.461
1722054628.9059,2024-07-26 21:30:28.905,95,false,0.0,4098.846, 4297.692, 4024.359, 4117.308, 4124.615
1722054628.9137,2024-07-26 21:30:28.913,96,false,0.0,4105.385, 4305.256, 4029.872, 4121.282, 4122.308
1722054628.9215,2024-07-26 21:30:28.921,97,false,0.0,4116.154, 4312.308, 4045.897, 4122.308, 4132.308
1722054628.9293,2024-07-26 21:30:28.929,98,false,0.0,4117.564, 4325.641, 4057.179, 4127.18, 4143.59
1722054628.9371,2024-07-26 21:30:28.937,99,false,0.0,4105.513, 4303.718, 4044.359, 4127.436, 4119.615
1722054628.9449,2024-07-26 21:30:28.944,100,false,0.0,4095.769, 4280.256, 4031.539, 4117.18, 4091.41
1722054628.9528,2024-07-26 21:30:28.952,101,false,0.0,4104.744, 4308.846, 4037.564, 4116.539, 4098.59
1722054628.9606,2024-07-26 21:30:28.960,102,false,0.0,4117.18, 4330.513, 4042.308, 4119.103, 4113.077
1722054628.9684,2024-07-26 21:30:28.968,103,false,0.0,4115.769, 4312.564, 4037.308, 4108.718, 4116.923
1722054628.9762,2024-07-26 21:30:28.976,104,false,0.0,4120.0, 4315.641, 4040.385, 4111.41, 4128.974
1722054628.984,2024-07-26 21:30:28.984,105,false,0.0,4133.333, 4333.974, 4053.718, 4130.769, 4141.41
1722054628.9918,2024-07-26 21:30:28.991,106,false,0.0,4129.872, 4326.539, 4059.359, 4133.333, 4139.487
1722054628.9996,2024-07-26 21:30:28.999,107,false,0.0,4122.692, 4321.667, 4052.179, 4127.692, 4135.513
1722054629.0074,2024-07-26 21:30:29.007,108,false,0.0,4130.769, 4323.205, 4045.769, 4130.128, 4136.539
1722054629.0153,2024-07-26 21:30:29.015,109,false,0.0,4131.539, 4307.18, 4047.692, 4124.487, 4139.359
1722054629.0231,2024-07-26 21:30:29.023,110,false,0.0,4127.308, 4303.333, 4051.41, 4120.513, 4143.461
1722054629.0309,2024-07-26 21:30:29.030,111,false,0.0,4132.82, 4311.539, 4050.897, 4127.949, 4140.128
1722054629.0387,2024-07-26 21:30:29.038,112,false,0.0,4125.385, 4301.667, 4046.667, 4123.077, 4129.487
1722054629.0465,2024-07-26 21:30:29.046,113,false,0.0,4114.231, 4310.385, 4043.077, 4116.923, 4129.359
1722054629.0543,2024-07-26 21:30:29.054,114,false,0.0,4134.615, 4343.205, 4051.154, 4133.077, 4141.923
1722054629.0621,2024-07-26 21:30:29.062,115,false,0.0,4153.846, 4333.461, 4066.539, 4143.205, 4150.256
1722054629.0699,2024-07-26 21:30:29.069,116,false,0.0,4141.026, 4304.872, 4066.41, 4134.359, 4148.59
1722054629.0778,2024-07-26 21:30:29.077,117,false,0.0,4133.461, 4323.974, 4057.308, 4132.692, 4147.308
1722054629.0856,2024-07-26 21:30:29.085,118,false,0.0,4138.461, 4340.897, 4062.564, 4136.795, 4153.59
1722054629.0934,2024-07-26 21:30:29.093,119,false,0.0,4129.103, 4309.231, 4066.282, 4133.461, 4164.487
1722054629.1012,2024-07-26 21:30:29.101,120,false,0.0,4124.872, 4293.846, 4055.256, 4131.154, 4179.359
1722054629.109,2024-07-26 21:30:29.109,121,false,0.0,4136.282, 4318.077, 4051.795, 4130.128, 4198.461
1722054629.1168,2024-07-26 21:30:29.116,122,false,0.0,4133.333, 4323.59, 4052.692, 4125.385, 4213.718
1722054629.1246,2024-07-26 21:30:29.124,123,false,0.0,4121.795, 4307.051, 4041.154, 4123.077, 4221.539
1722054629.1324,2024-07-26 21:30:29.132,124,false,0.0,4118.846, 4305.128, 4032.692, 4121.154, 4229.231
1722054629.1403,2024-07-26 21:30:29.140,125,false,0.0,4113.974, 4309.231, 4036.41, 4121.795, 4240.256
1722054629.1481,2024-07-26 21:30:29.148,126,false,0.0,4117.949, 4308.974, 4046.41, 4134.744, 4255.641
1722054629.1559,2024-07-26 21:30:29.155,127,false,0.0,4130.641, 4310.256, 4057.821, 4141.282, 4266.41
1722054629.1637,2024-07-26 21:30:29.163,0,false,0.0,4118.59, 4305.256, 4052.436, 4122.308, 4257.82
1722054629.1715,2024-07-26 21:30:29.171,1,false,0.0,4106.026, 4308.333, 4039.103, 4108.718, 4253.461
1722054629.1793,2024-07-26 21:30:29.179,2,false,0.0,4129.487, 4331.923, 4052.051, 4126.282, 4281.154
1722054629.1871,2024-07-26 21:30:29.187,3,false,0.0,4142.308, 4334.487, 4067.821, 4148.59, 4302.051
1722054629.1949,2024-07-26 21:30:29.194,4,false,0.0,4123.205, 4312.436, 4055.897, 4149.872, 4286.026
1722054629.2028,2024-07-26 21:30:29.202,5,false,0.0,4116.154, 4312.82, 4046.41, 4134.615, 4270.513
1722054629.2106,2024-07-26 21:30:29.210,6,false,0.0,4114.359, 4312.564, 4047.692, 4116.539, 4269.872
1722054629.2184,2024-07-26 21:30:29.218,7,false,0.0,4107.949, 4289.872, 4046.282, 4118.718, 4267.564
1722054629.2262,2024-07-26 21:30:29.226,8,false,0.0,4130.256, 4303.846, 4062.564, 4145.0, 4277.051
1722054629.234,2024-07-26 21:30:29.234,9,false,0.0,4155.256, 4343.59, 4085.128, 4156.667, 4295.0
1722054629.2418,2024-07-26 21:30:29.241,10,false,0.0,4142.436, 4334.487, 4077.436, 4141.795, 4292.949
1722054629.2496,2024-07-26 21:30:29.249,11,false,0.0,4127.692, 4310.256, 4060.128, 4133.846, 4280.641
1722054629.2574,2024-07-26 21:30:29.257,12,false,0.0,4131.539, 4323.461, 4056.667, 4135.256, 4274.872
1722054629.2653,2024-07-26 21:30:29.265,13,false,0.0,4130.0, 4325.897, 4052.179, 4127.051, 4264.872
1722054629.2731,2024-07-26 21:30:29.273,14,false,0.0,4130.0, 4302.82, 4052.821, 4126.41, 4258.974
1722054629.2809,2024-07-26 21:30:29.280,15,false,0.0,4143.718, 4309.103, 4068.077, 4143.846, 4274.872
1722054629.2887,2024-07-26 21:30:29.288,16,false,0.0,4158.846, 4338.846, 4077.692, 4157.692, 4293.077
1722054629.2965,2024-07-26 21:30:29.296,17,false,0.0,4168.718, 4344.744, 4074.615, 4161.026, 4292.051
1722054629.3043,2024-07-26 21:30:29.304,18,false,0.0,4168.333, 4326.539, 4072.564, 4162.436, 4282.436
1722054629.3121,2024-07-26 21:30:29.312,19,false,0.0,4162.82, 4313.846, 4076.154, 4162.308, 4276.026
1722054629.3199,2024-07-26 21:30:29.319,20,false,0.0,4168.718, 4325.897, 4079.744, 4163.077, 4268.718
1722054629.3278,2024-07-26 21:30:29.327,21,false,0.0,4172.82, 4345.256, 4073.461, 4160.256, 4259.103
1722054629.3356,2024-07-26 21:30:29.335,22,false,0.0,4155.0, 4334.744, 4058.205, 4140.641, 4243.974
1722054629.3434,2024-07-26 21:30:29.343,23,false,0.0,4130.385, 4304.615, 4045.385, 4116.667, 4215.256
1722054629.3512,2024-07-26 21:30:29.351,24,false,0.0,4118.333, 4295.769, 4038.59, 4112.564, 4187.308
1722054629.359,2024-07-26 21:30:29.359,25,false,0.0,4120.769, 4305.385, 4038.974, 4123.59, 4183.333
1722054629.3668,2024-07-26 21:30:29.366,26,false,0.0,4136.026, 4315.513, 4051.539, 4132.051, 4196.026
1722054629.3746,2024-07-26 21:30:29.374,27,false,0.0,4152.692, 4327.949, 4068.846, 4136.154, 4208.333
1722054629.3824,2024-07-26 21:30:29.382,28,false,0.0,4155.513, 4329.487, 4076.026, 4139.231, 4216.282
1722054629.3903,2024-07-26 21:30:29.390,29,false,0.0,4150.385, 4310.897, 4070.513, 4138.59, 4210.0
1722054629.3981,2024-07-26 21:30:29.398,30,false,0.0,4150.513, 4298.718, 4058.59, 4135.0, 4191.795
1722054629.4059,2024-07-26 21:30:29.405,31,false,0.0,4151.795, 4310.897, 4047.949, 4131.795, 4184.487
1722054629.4137,2024-07-26 21:30:29.413,32,false,0.0,4150.385, 4333.718, 4049.744, 4134.103, 4192.436
1722054629.4215,2024-07-26 21:30:29.421,33,false,0.0,4160.0, 4343.205, 4071.026, 4148.846, 4206.026
1722054629.4293,2024-07-26 21:30:29.429,34,false,0.0,4175.256, 4327.564, 4091.282, 4162.692, 4212.949
1722054629.4371,2024-07-26 21:30:29.437,35,false,0.0,4168.333, 4308.718, 4081.026, 4152.18, 4194.615
1722054629.4449,2024-07-26 21:30:29.444,36,false,0.0,4150.128, 4309.872, 4060.513, 4132.308, 4170.769
1722054629.4528,2024-07-26 21:30:29.452,37,false,0.0,4153.974, 4317.18, 4066.282, 4136.667, 4182.051
1722054629.4606,2024-07-26 21:30:29.460,38,false,0.0,4166.41, 4319.359, 4076.923, 4152.692, 4200.513
1722054629.4684,2024-07-26 21:30:29.468,39,false,0.0,4163.974, 4322.051, 4066.923, 4153.333, 4187.18
1722054629.4762,2024-07-26 21:30:29.476,40,false,0.0,4162.82, 4319.872, 4060.128, 4147.82, 4170.385
1722054629.484,2024-07-26 21:30:29.484,41,false,0.0,4167.308, 4317.308, 4063.461, 4144.487, 4168.846
1722054629.4918,2024-07-26 21:30:29.491,42,false,0.0,4162.18, 4323.461, 4059.103, 4134.872, 4163.974
1722054629.4996,2024-07-26 21:30:29.499,43,false,0.0,4157.436, 4324.359, 4056.923, 4127.051, 4164.103
1722054629.5074,2024-07-26 21:30:29.507,44,false,0.0,4163.846, 4318.461, 4067.308, 4128.718, 4173.974
1722054629.5153,2024-07-26 21:30:29.515,45,false,0.0,4173.077, 4322.436, 4080.385, 4133.077, 4176.154
1722054629.5231,2024-07-26 21:30:29.523,46,false,0.0,4180.769, 4330.897, 4092.308, 4141.667, 4176.154
1722054629.5309,2024-07-26 21:30:29.530,47,false,0.0,4182.051, 4332.564, 4095.385, 4150.641, 4178.077
1722054629.5387,2024-07-26 21:30:29.538,48,false,0.0,4175.256, 4327.692, 4084.103, 4147.692, 4171.923
1722054629.5465,2024-07-26 21:30:29.546,49,false,0.0,4173.333, 4324.744, 4075.0, 4141.667, 4168.718
1722054629.5543,2024-07-26 21:30:29.554,50,false,0.0,4173.718, 4330.897, 4077.051, 4141.026, 4170.256
1722054629.5621,2024-07-26 21:30:29.562,51,false,0.0,4162.564, 4326.282, 4077.436, 4133.461, 4158.718
1722054629.5699,2024-07-26 21:30:29.569,52,false,0.0,4152.564, 4302.692, 4072.179, 4124.487, 4146.41
1722054629.5778,2024-07-26 21:30:29.577,53,false,0.0,4160.513, 4302.436, 4070.641, 4129.744, 4152.18
1722054629.5856,2024-07-26 21:30:29.585,54,false,0.0,4174.103, 4330.513, 4076.154, 4135.897, 4164.487
1722054629.5934,2024-07-26 21:30:29.593,55,false,0.0,4178.205, 4342.436, 4082.821, 4132.436, 4172.436
1722054629.6012,2024-07-26 21:30:29.601,56,false,0.0,4178.846, 4338.461, 4085.769, 4135.897, 4178.333
1722054629.609,2024-07-26 21:30:29.609,57,false,0.0,4180.128, 4328.846, 4083.077, 4146.154, 4180.256
1722054629.6168,2024-07-26 21:30:29.616,58,false,0.0,4171.667, 4306.41, 4071.923, 4143.59, 4176.154
1722054629.6246,2024-07-26 21:30:29.624,59,false,0.0,4157.308, 4308.205, 4059.359, 4133.59, 4172.436
1722054629.6324,2024-07-26 21:30:29.632,60,false,0.0,4152.949, 4333.974, 4058.59, 4133.077, 4173.59
1722054629.6403,2024-07-26 21:30:29.640,61,false,0.0,4155.513, 4316.923, 4064.487, 4138.077, 4176.923
1722054629.6481,2024-07-26 21:30:29.648,62,false,0.0,4159.615, 4284.744, 4069.103, 4141.923, 4182.308
1722054629.6559,2024-07-26 21:30:29.655,63,false,0.0,4170.385, 4312.18, 4073.333, 4140.128, 4190.641
1722054629.6637,2024-07-26 21:30:29.663,64,false,0.0,4172.051, 4348.59, 4065.897, 4126.154, 4189.103
1722054629.6715,2024-07-26 21:30:29.671,65,false,0.0,4163.461, 4338.718, 4051.41, 4117.564, 4181.282
1722054629.6793,2024-07-26 21:30:29.679,66,false,0.0,4173.59, 4331.026, 4055.641, 4132.051, 4194.615
1722054629.6871,2024-07-26 21:30:29.687,67,false,0.0,4186.41, 4335.897, 4062.179, 4143.333, 4215.128
1722054629.6949,2024-07-26 21:30:29.694,68,false,0.0,4175.641, 4321.795, 4053.333, 4139.359, 4214.744
1722054629.7028,2024-07-26 21:30:29.702,69,false,0.0,4177.051, 4319.487, 4058.461, 4148.59, 4219.615
1722054629.7106,2024-07-26 21:30:29.710,70,false,0.0,4192.82, 4335.641, 4068.718, 4159.103, 4232.051
1722054629.7184,2024-07-26 21:30:29.718,71,false,0.0,4179.231, 4319.872, 4053.333, 4143.974, 4215.385
1722054629.7262,2024-07-26 21:30:29.726,72,false,0.0,4163.205, 4292.18, 4047.821, 4136.539, 4202.18
1722054629.734,2024-07-26 21:30:29.734,73,false,0.0,4175.769, 4306.795, 4064.103, 4150.897, 4226.282
1722054629.7418,2024-07-26 21:30:29.741,74,false,0.0,4179.103, 4334.744, 4057.692, 4149.359, 4236.667
1722054629.7496,2024-07-26 21:30:29.749,75,false,0.0,4170.0, 4328.974, 4042.436, 4138.077, 4220.641
1722054629.7574,2024-07-26 21:30:29.757,76,false,0.0,4171.539, 4307.436, 4048.718, 4143.846, 4220.128
1722054629.7653,2024-07-26 21:30:29.765,77,false,0.0,4165.897, 4307.692, 4054.359, 4146.923, 4222.564
1722054629.7731,2024-07-26 21:30:29.773,78,false,0.0,4159.359, 4327.692, 4059.359, 4143.333, 4214.231
1722054629.7809,2024-07-26 21:30:29.780,79,false,0.0,4176.154, 4335.0, 4075.897, 4158.846, 4224.744
1722054629.7887,2024-07-26 21:30:29.788,80,false,0.0,4193.59, 4325.0, 4081.026, 4180.128, 4248.077
1722054629.7965,2024-07-26 21:30:29.796,81,false,0.0,4195.0, 4323.205, 4077.308, 4181.923, 4253.205
1722054629.8043,2024-07-26 21:30:29.804,82,false,0.0,4188.59, 4319.103, 4080.769, 4172.436, 4238.846
1722054629.8121,2024-07-26 21:30:29.812,83,false,0.0,4175.769, 4299.103, 4079.615, 4165.0, 4220.128
1722054629.8199,2024-07-26 21:30:29.819,84,false,0.0,4172.308, 4299.231, 4080.641, 4165.385, 4216.539
1722054629.8278,2024-07-26 21:30:29.827,85,false,0.0,4186.282, 4326.41, 4093.461, 4176.154, 4228.846
1722054629.8356,2024-07-26 21:30:29.835,86,false,0.0,4195.256, 4341.154, 4098.59, 4182.82, 4232.692
1722054629.8434,2024-07-26 21:30:29.843,87,false,0.0,4188.846, 4337.436, 4092.564, 4168.846, 4222.436
1722054629.8512,2024-07-26 21:30:29.851,88,false,0.0,4177.436, 4326.282, 4084.103, 4147.564, 4209.231
1722054629.859,2024-07-26 21:30:29.859,89,false,0.0,4175.897, 4313.077, 4073.59, 4143.718, 4198.205
1722054629.8668,2024-07-26 21:30:29.866,90,false,0.0,4193.846, 4314.872, 4074.615, 4156.41, 4199.615
1722054629.8746,2024-07-26 21:30:29.874,91,false,0.0,4207.051, 4326.282, 4084.231, 4166.026, 4212.564
1722054629.8824,2024-07-26 21:30:29.882,92,false,0.0,4198.59, 4330.641, 4080.513, 4166.539, 4218.846
1722054629.8903,2024-07-26 21:30:29.890,93,false,0.0,4192.692, 4330.897, 4072.436, 4163.461, 4213.718
1722054629.8981,2024-07-26 21:30:29.898,94,false,0.0,4193.846, 4321.41, 4073.846, 4159.872, 4202.949
1722054629.9059,2024-07-26 21:30:29.905,95,false,0.0,4189.744, 4310.897, 4079.231, 4160.128, 4193.846
1722054629.9137,2024-07-26 21:30:29.913,96,false,0.0,4187.564, 4322.949, 4085.0, 4156.795, 4190.641
1722054629.9215,2024-07-26 21:30:29.921,97,false,0.0,4180.641, 4332.051, 4082.692, 4140.769, 4181.795
1722054629.9293,2024-07-26 21:30:29.929,98,false,0.0,4170.128, 4321.41, 4077.692, 4135.641, 4172.051
1722054629.9371,2024-07-26 21:30:29.937,99,false,0.0,4183.718, 4324.872, 4090.641, 4155.897, 4182.051
1722054629.9449,2024-07-26 21:30:29.944,100,false,0.0,4205.513, 4337.692, 4099.487, 4168.461, 4190.897
1722054629.9528,2024-07-26 21:30:29.952,101,false,0.0,4200.385, 4337.949, 4081.154, 4156.539, 4170.513
1722054629.9606,2024-07-26 21:30:29.960,102,false,0.0,4184.359, 4346.795, 4073.461, 4147.051, 4144.103
1722054629.9684,2024-07-26 21:30:29.968,103,false,0.0,4177.051, 4356.539, 4088.077, 4150.897, 4131.026
1722054629.9762,2024-07-26 21:30:29.976,104,false,0.0,4170.0, 4340.641, 4080.897, 4147.692, 4113.461
1722054629.984,2024-07-26 21:30:29.984,105,false,0.0,4155.769, 4326.795, 4055.128, 4131.795, 4085.769
1722054629.9918,2024-07-26 21:30:29.991,106,false,0.0,4136.795, 4336.539, 4048.59, 4125.0, 4065.897
1722054629.9996,2024-07-26 21:30:29.999,107,false,0.0,4122.564, 4340.256, 4048.59, 4132.564, 4057.051
1722054630.0074,2024-07-26 21:30:30.007,108,false,0.0,4111.41, 4325.128, 4031.923, 4130.769, 4040.897
1722054630.0153,2024-07-26 21:30:30.015,109,false,0.0,4097.436, 4317.82, 4023.333, 4121.667, 4016.667
1722054630.0231,2024-07-26 21:30:30.023,110,false,0.0,4089.615, 4323.718, 4035.128, 4126.026, 3999.615
1722054630.0309,2024-07-26 21:30:30.030,111,false,0.0,4075.256, 4316.923, 4033.461, 4124.231, 3974.359
1722054630.0387,2024-07-26 21:30:30.038,112,false,0.0,4041.539, 4310.128, 4017.949, 4108.718, 3938.59
1722054630.0465,2024-07-26 21:30:30.046,113,false,0.0,4025.641, 4331.282, 4021.282, 4108.974, 3925.128
1722054630.0543,2024-07-26 21:30:30.054,114,false,0.0,4021.795, 4338.461, 4028.461, 4109.615, 3913.846
1722054630.0621,2024-07-26 21:30:30.062,115,false,0.0,3987.179, 4306.795, 4021.282, 4091.282, 3876.026
1722054630.0699,2024-07-26 21:30:30.069,116,false,0.0,3964.744, 4301.539, 4028.846, 4095.0, 3861.795
1722054630.0778,2024-07-26 21:30:30.077,117,false,0.0,3978.59, 4330.769, 4043.077, 4121.282, 3876.026
1722054630.0856,2024-07-26 21:30:30.085,118,false,0.0,3963.59, 4325.769, 4028.59, 4121.667, 3854.487
1722054630.0934,2024-07-26 21:30:30.093,119,false,0.0,3934.615, 4301.41, 4015.0, 4110.385, 3824.231
1722054630.1012,2024-07-26 21:30:30.101,120,false,0.0,3946.667, 4306.667, 4031.41, 4118.205, 3836.539
1722054630.109,2024-07-26 21:30:30.109,121,false,0.0,3952.051, 4311.282, 4041.539, 4125.128, 3848.077
1722054630.1168,2024-07-26 21:30:30.116,122,false,0.0,3930.513, 4297.051, 4025.256, 4122.949, 3835.513
1722054630.1246,2024-07-26 21:30:30.124,123,false,0.0,3928.846, 4298.846, 4007.436, 4124.103, 3831.539
1722054630.1324,2024-07-26 21:30:30.132,124,false,0.0,3930.641, 4315.513, 4003.333, 4122.051, 3830.0
1722054630.1403,2024-07-26 21:30:30.140,125,false,0.0,3918.718, 4320.385, 4010.256, 4116.539, 3819.487
1722054630.1481,2024-07-26 21:30:30.148,126,false,0.0,3922.179, 4315.128, 4019.487, 4118.205, 3815.641
1722054630.1559,2024-07-26 21:30:30.155,127,false,0.0,3924.615, 4312.308, 4023.333, 4124.103, 3816.41
1722054630.1637,2024-07-26 21:30:30.163,0,false,0.0,3910.385, 4317.308, 4026.026, 4125.128, 3818.077
1722054630.1715,2024-07-26 21:30:30.171,1,false,0.0,3909.231, 4321.539, 4028.077, 4118.205, 3821.923
1722054630.1793,2024-07-26 21:30:30.179,2,false,0.0,3912.179, 4306.923, 4023.718, 4110.769, 3817.051
1722054630.1871,2024-07-26 21:30:30.187,3,false,0.0,3902.051, 4288.461, 4022.308, 4115.513, 3814.103
1722054630.1949,2024-07-26 21:30:30.194,4,false,0.0,3907.949, 4302.692, 4034.487, 4128.59, 3834.359
1722054630.2028,2024-07-26 21:30:30.202,5,false,0.0,3930.513, 4330.897, 4049.487, 4135.0, 3860.641
1722054630.2106,2024-07-26 21:30:30.210,6,false,0.0,3941.539, 4328.718, 4055.256, 4133.974, 3873.461
1722054630.2184,2024-07-26 21:30:30.218,7,false,0.0,3947.564, 4313.333, 4054.615, 4135.513, 3886.539
1722054630.2262,2024-07-26 21:30:30.226,8,false,0.0,3952.308, 4315.0, 4047.949, 4139.744, 3897.692
1722054630.234,2024-07-26 21:30:30.234,9,false,0.0,3946.41, 4320.385, 4036.026, 4135.641, 3889.615
1722054630.2418,2024-07-26 21:30:30.241,10,false,0.0,3948.077, 4325.513, 4035.897, 4127.436, 3884.872
1722054630.2496,2024-07-26 21:30:30.249,11,false,0.0,3958.718, 4329.487, 4046.41, 4130.641, 3899.872
1722054630.2574,2024-07-26 21:30:30.257,12,false,0.0,3948.077, 4310.769, 4037.564, 4130.0, 3899.744
1722054630.2653,2024-07-26 21:30:30.265,13,false,0.0,3931.539, 4288.461, 4017.564, 4115.385, 3885.513
1722054630.2731,2024-07-26 21:30:30.273,14,false,0.0,3946.667, 4296.41, 4020.385, 4116.667, 3898.974
1722054630.2809,2024-07-26 21:30:30.280,15,false,0.0,3968.59, 4309.487, 4029.744, 4130.513, 3915.513
1722054630.2887,2024-07-26 21:30:30.288,16,false,0.0,3966.923, 4310.128, 4026.154, 4124.615, 3904.872
1722054630.2965,2024-07-26 21:30:30.296,17,false,0.0,3966.282, 4318.718, 4028.846, 4120.256, 3909.744
1722054630.3043,2024-07-26 21:30:30.304,18,false,0.0,3976.282, 4325.641, 4030.513, 4133.205, 3932.308
1722054630.3121,2024-07-26 21:30:30.312,19,false,0.0,3975.256, 4318.077, 4018.077, 4134.103, 3926.795
1722054630.3199,2024-07-26 21:30:30.319,20,false,0.0,3972.564, 4315.256, 4016.667, 4131.026, 3916.026
1722054630.3278,2024-07-26 21:30:30.327,21,false,0.0,3979.872, 4312.692, 4023.461, 4139.744, 3925.256
1722054630.3356,2024-07-26 21:30:30.335,22,false,0.0,3979.872, 4300.769, 4018.718, 4135.641, 3927.051
1722054630.3434,2024-07-26 21:30:30.343,23,false,0.0,3973.846, 4301.282, 4018.974, 4121.667, 3924.872
1722054630.3512,2024-07-26 21:30:30.351,24,false,0.0,3974.744, 4311.026, 4023.205, 4118.333, 3933.59
1722054630.359,2024-07-26 21:30:30.359,25,false,0.0,3981.41, 4311.795, 4020.0, 4122.18, 3941.795
1722054630.3668,2024-07-26 21:30:30.366,26,false,0.0,4001.539, 4325.256, 4034.872, 4137.051, 3956.795
1722054630.3746,2024-07-26 21:30:30.374,27,false,0.0,4024.872, 4349.103, 4058.333, 4148.077, 3972.692
1722054630.3824,2024-07-26 21:30:30.382,28,false,0.0,4018.077, 4340.385, 4049.615, 4128.077, 3962.949
1722054630.3903,2024-07-26 21:30:30.390,29,false,0.0,4000.641, 4320.0, 4035.128, 4111.154, 3948.974
1722054630.3981,2024-07-26 21:30:30.398,30,false,0.0,4012.564, 4335.256, 4051.923, 4126.282, 3962.051
1722054630.4059,2024-07-26 21:30:30.405,31,false,0.0,4035.513, 4347.949, 4066.539, 4136.026, 3992.564
1722054630.4137,2024-07-26 21:30:30.413,32,false,0.0,4059.359, 4326.539, 4056.41, 4132.18, 4034.231
1722054630.4215,2024-07-26 21:30:30.421,33,false,0.0,4112.949, 4323.718, 4055.769, 4144.103, 4088.205
1722054630.4293,2024-07-26 21:30:30.429,34,false,0.0,4177.692, 4348.974, 4077.308, 4164.231, 4146.795
1722054630.4371,2024-07-26 21:30:30.437,35,false,0.0,4217.564, 4348.59, 4092.821, 4172.18, 4207.949
1722054630.4449,2024-07-26 21:30:30.444,36,false,0.0,4251.539, 4329.744, 4090.769, 4167.18, 4260.385
1722054630.4528,2024-07-26 21:30:30.452,37,false,0.0,4298.333, 4329.231, 4088.461, 4161.41, 4301.795
1722054630.4606,2024-07-26 21:30:30.460,38,false,0.0,4344.359, 4337.949, 4093.59, 4168.333, 4353.333
1722054630.4684,2024-07-26 21:30:30.468,39,false,0.0,4387.692, 4345.897, 4096.667, 4173.59, 4408.718
1722054630.4762,2024-07-26 21:30:30.476,40,false,0.0,4426.795, 4350.0, 4095.641, 4164.615, 4446.923
1722054630.484,2024-07-26 21:30:30.484,41,false,0.0,4458.077, 4340.513, 4096.923, 4168.461, 4482.82
1722054630.4918,2024-07-26 21:30:30.491,42,false,0.0,4493.974, 4334.872, 4104.103, 4186.282, 4521.795
1722054630.4996,2024-07-26 21:30:30.499,43,false,0.0,4525.0, 4341.154, 4113.461, 4184.872, 4545.385
1722054630.5074,2024-07-26 21:30:30.507,44,false,0.0,4528.718, 4338.333, 4114.744, 4175.769, 4559.615
1722054630.5153,2024-07-26 21:30:30.515,45,false,0.0,4528.846, 4344.744, 4106.154, 4183.59, 4573.59
1722054630.5231,2024-07-26 21:30:30.523,46,false,0.0,4543.077, 4367.82, 4100.256, 4190.641, 4576.795
1722054630.5309,2024-07-26 21:30:30.530,47,false,0.0,4540.128, 4355.256, 4101.282, 4184.744, 4573.077
1722054630.5387,2024-07-26 21:30:30.538,48,false,0.0,4523.59, 4323.461, 4109.487, 4184.231, 4579.744
1722054630.5465,2024-07-26 21:30:30.546,49,false,0.0,4532.692, 4339.359, 4124.744, 4201.026, 4594.615
1722054630.5543,2024-07-26 21:30:30.554,50,false,0.0,4548.077, 4363.333, 4126.795, 4218.077, 4597.18
1722054630.5621,2024-07-26 21:30:30.562,51,false,0.0,4531.154, 4343.974, 4108.59, 4210.897, 4579.615
1722054630.5699,2024-07-26 21:30:30.569,52,false,0.0,4506.026, 4333.718, 4101.539, 4197.051, 4562.308
1722054630.5778,2024-07-26 21:30:30.577,53,false,0.0,4500.513, 4348.333, 4108.333, 4204.615, 4555.385
1722054630.5856,2024-07-26 21:30:30.585,54,false,0.0,4495.256, 4340.769, 4098.718, 4206.154, 4540.897
1722054630.5934,2024-07-26 21:30:30.593,55,false,0.0,4478.077, 4328.461, 4084.744, 4186.026, 4524.487
1722054630.6012,2024-07-26 21:30:30.601,56,false,0.0,4465.128, 4338.718, 4090.769, 4186.282, 4526.667
1722054630.609,2024-07-26 21:30:30.609,57,false,0.0,4460.513, 4346.154, 4101.41, 4208.333, 4527.18
1722054630.6168,2024-07-26 21:30:30.616,58,false,0.0,4453.205, 4346.539, 4105.897, 4213.846, 4508.718
1722054630.6246,2024-07-26 21:30:30.624,59,false,0.0,4433.846, 4340.769, 4107.051, 4207.949, 4490.769
1722054630.6324,2024-07-26 21:30:30.632,60,false,0.0,4405.128, 4315.128, 4097.692, 4203.59, 4473.974
1722054630.6403,2024-07-26 21:30:30.640,61,false,0.0,4385.897, 4310.513, 4090.0, 4194.872, 4451.539
1722054630.6481,2024-07-26 21:30:30.648,62,false,0.0,4382.82, 4345.769, 4099.103, 4193.333, 4443.077
1722054630.6559,2024-07-26 21:30:30.655,63,false,0.0,4377.949, 4350.513, 4108.846, 4201.154, 4448.333
1722054630.6637,2024-07-26 21:30:30.663,64,false,0.0,4370.0, 4324.744, 4110.128, 4203.718, 4443.974
1722054630.6715,2024-07-26 21:30:30.671,65,false,0.0,4367.564, 4340.0, 4111.282, 4204.615, 4427.82
1722054630.6793,2024-07-26 21:30:30.679,66,false,0.0,4357.18, 4358.461, 4108.718, 4202.051, 4408.077
1722054630.6871,2024-07-26 21:30:30.687,67,false,0.0,4338.461, 4325.256, 4104.231, 4190.641, 4393.205
1722054630.6949,2024-07-26 21:30:30.694,68,false,0.0,4328.59, 4304.103, 4104.103, 4187.949, 4386.795
1722054630.7028,2024-07-26 21:30:30.702,69,false,0.0,4318.974, 4322.308, 4102.82, 4193.59, 4373.333
1722054630.7106,2024-07-26 21:30:30.710,70,false,0.0,4301.539, 4325.0, 4101.923, 4187.051, 4353.333
1722054630.7184,2024-07-26 21:30:30.718,71,false,0.0,4289.872, 4315.256, 4099.872, 4176.539, 4344.487
1722054630.7262,2024-07-26 21:30:30.726,72,false,0.0,4282.564, 4317.18, 4087.692, 4174.359, 4337.692
1722054630.734,2024-07-26 21:30:30.734,73,false,0.0,4276.154, 4316.154, 4081.026, 4174.231, 4329.744
1722054630.7418,2024-07-26 21:30:30.741,74,false,0.0,4278.59, 4322.18, 4087.308, 4175.385, 4336.923
1722054630.7496,2024-07-26 21:30:30.749,75,false,0.0,4277.692, 4330.897, 4081.026, 4174.487, 4341.282
1722054630.7574,2024-07-26 21:30:30.757,76,false,0.0,4268.59, 4315.0, 4069.103, 4171.667, 4326.539
1722054630.7653,2024-07-26 21:30:30.765,77,false,0.0,4271.154, 4309.487, 4083.077, 4183.333, 4324.615
1722054630.7731,2024-07-26 21:30:30.773,78,false,0.0,4281.026, 4329.872, 4106.667, 4203.333, 4343.333
1722054630.7809,2024-07-26 21:30:30.780,79,false,0.0,4280.897, 4325.641, 4108.205, 4206.539, 4350.256
1722054630.7887,2024-07-26 21:30:30.788,80,false,0.0,4276.795, 4315.769, 4097.564, 4200.256, 4339.487
1722054630.7965,2024-07-26 21:30:30.796,81,false,0.0,4273.59, 4341.923, 4096.923, 4197.18, 4326.923
1722054630.8043,2024-07-26 21:30:30.804,82,false,0.0,4268.077, 4354.231, 4103.205, 4185.385, 4320.385
1722054630.8121,2024-07-26 21:30:30.812,83,false,0.0,4264.615, 4334.103, 4100.641, 4171.795, 4321.539
1722054630.8199,2024-07-26 21:30:30.819,84,false,0.0,4262.051, 4322.308, 4089.615, 4177.436, 4321.667
1722054630.8278,2024-07-26 21:30:30.827,85,false,0.0,4258.077, 4311.026, 4086.154, 4191.41, 4315.0
1722054630.8356,2024-07-26 21:30:30.835,86,false,0.0,4256.026, 4304.487, 4090.513, 4198.59, 4312.692
1722054630.8434,2024-07-26 21:30:30.843,87,false,0.0,4252.949, 4327.564, 4088.205, 4204.103, 4316.41
1722054630.8512,2024-07-26 21:30:30.851,88,false,0.0,4245.128, 4335.128, 4077.179, 4201.41, 4311.154
1722054630.859,2024-07-26 21:30:30.859,89,false,0.0,4240.513, 4314.487, 4069.359, 4186.154, 4297.82
1722054630.8668,2024-07-26 21:30:30.866,90,false,0.0,4248.974, 4324.615, 4081.41, 4183.846, 4300.0
1722054630.8746,2024-07-26 21:30:30.874,91,false,0.0,4262.308, 4341.282, 4106.282, 4201.282, 4317.82
1722054630.8824,2024-07-26 21:30:30.882,92,false,0.0,4257.564, 4316.41, 4106.539, 4204.359, 4314.359
1722054630.8903,2024-07-26 21:30:30.890,93,false,0.0,4241.41, 4304.615, 4087.564, 4185.769, 4290.897
1722054630.8981,2024-07-26 21:30:30.898,94,false,0.0,4243.077, 4330.385, 4092.564, 4179.359, 4293.205
1722054630.9059,2024-07-26 21:30:30.905,95,false,0.0,4249.103, 4337.436, 4104.487, 4191.923, 4311.154
1722054630.9137,2024-07-26 21:30:30.913,96,false,0.0,4239.744, 4325.897, 4096.41, 4198.974, 4307.308
1722054630.9215,2024-07-26 21:30:30.921,97,false,0.0,4243.59, 4330.769, 4105.897, 4198.205, 4307.051
1722054630.9293,2024-07-26 21:30:30.929,98,false,0.0,4258.718, 4333.205, 4129.231, 4201.41, 4320.641
1722054630.9371,2024-07-26 21:30:30.937,99,false,0.0,4247.436, 4321.539, 4116.41, 4202.051, 4309.103
1722054630.9449,2024-07-26 21:30:30.944,100,false,0.0,4233.461, 4321.41, 4094.744, 4195.513, 4293.077
1722054630.9528,2024-07-26 21:30:30.952,101,false,0.0,4244.744, 4332.436, 4105.256, 4192.308, 4310.513
1722054630.9606,2024-07-26 21:30:30.960,102,false,0.0,4248.974, 4334.744, 4115.128, 4196.282, 4328.205
1722054630.9684,2024-07-26 21:30:30.968,103,false,0.0,4243.718, 4328.846, 4111.154, 4202.051, 4324.744
1722054630.9762,2024-07-26 21:30:30.976,104,false,0.0,4254.103, 4326.667, 4117.564, 4203.333, 4326.026
1722054630.984,2024-07-26 21:30:30.984,105,false,0.0,4260.0, 4331.282, 4124.744, 4197.949, 4335.0
1722054630.9918,2024-07-26 21:30:30.991,106,false,0.0,4247.308, 4339.103, 4118.205, 4189.615, 4339.103
1722054630.9996,2024-07-26 21:30:30.999,107,false,0.0,4235.128, 4343.333, 4107.308, 4180.513, 4336.41
1722054631.0074,2024-07-26 21:30:31.007,108,false,0.0,4228.461, 4341.026, 4101.282, 4173.461, 4330.256
1722054631.0153,2024-07-26 21:30:31.015,109,false,0.0,4230.0, 4338.205, 4109.231, 4176.539, 4338.461
1722054631.0231,2024-07-26 21:30:31.023,110,false,0.0,4235.641, 4337.051, 4119.359, 4185.641, 4357.949
1722054631.0309,2024-07-26 21:30:31.030,111,false,0.0,4224.487, 4330.897, 4104.487, 4183.846, 4358.205
1722054631.0387,2024-07-26 21:30:31.038,112,false,0.0,4215.0, 4326.795, 4085.769, 4177.18, 4352.18
1722054631.0465,2024-07-26 21:30:31.046,113,false,0.0,4237.692, 4343.333, 4098.974, 4189.359, 4376.026
1722054631.0543,2024-07-26 21:30:31.054,114,false,0.0,4263.718, 4365.513, 4121.795, 4212.051, 4408.718
1722054631.0621,2024-07-26 21:30:31.062,115,false,0.0,4262.18, 4361.026, 4123.59, 4215.513, 4414.359
1722054631.0699,2024-07-26 21:30:31.069,116,false,0.0,4252.436, 4347.949, 4113.974, 4202.564, 4400.641
1722054631.0778,2024-07-26 21:30:31.077,117,false,0.0,4246.282, 4355.769, 4105.385, 4193.718, 4385.385
1722054631.0856,2024-07-26 21:30:31.085,118,false,0.0,4233.59, 4357.051, 4099.231, 4182.308, 4371.539
1722054631.0934,2024-07-26 21:30:31.093,119,false,0.0,4226.026, 4339.487, 4099.103, 4165.897, 4366.282
1722054631.1012,2024-07-26 21:30:31.101,120,false,0.0,4243.333, 4347.436, 4107.18, 4171.539, 4384.872
1722054631.109,2024-07-26 21:30:31.109,121,false,0.0,4275.128, 4381.795, 4121.41, 4198.077, 4423.333
1722054631.1168,2024-07-26 21:30:31.116,122,false,0.0,4291.539, 4387.564, 4134.231, 4210.769, 4449.103
1722054631.1246,2024-07-26 21:30:31.124,123,false,0.0,4285.256, 4365.128, 4137.308, 4209.231, 4445.385
1722054631.1324,2024-07-26 21:30:31.132,124,false,0.0,4279.359, 4363.718, 4135.256, 4212.18, 4436.154
1722054631.1403,2024-07-26 21:30:31.140,125,false,0.0,4280.897, 4373.205, 4132.949, 4210.128, 4432.308
1722054631.1481,2024-07-26 21:30:31.148,126,false,0.0,4268.718, 4345.0, 4126.282, 4202.436, 4417.18
1722054631.1559,2024-07-26 21:30:31.155,127,false,0.0,4250.128, 4311.923, 4118.718, 4209.487, 4403.077
1722054631.1637,2024-07-26 21:30:31.163,0,false,0.0,4250.256, 4330.513, 4111.539, 4216.282, 4406.667
1722054631.1715,2024-07-26 21:30:31.171,1,false,0.0,4246.795, 4345.0, 4095.128, 4195.897, 4398.077
1722054631.1793,2024-07-26 21:30:31.179,2,false,0.0,4226.154, 4310.128, 4082.949, 4178.205, 4374.487
1722054631.1871,2024-07-26 21:30:31.187,3,false,0.0,4233.077, 4308.718, 4096.539, 4196.026, 4380.513
1722054631.1949,2024-07-26 21:30:31.194,4,false,0.0,4260.641, 4353.846, 4112.051, 4211.795, 4395.897
1722054631.2028,2024-07-26 21:30:31.202,5,false,0.0,4245.0, 4350.513, 4101.026, 4190.256, 4369.103
1722054631.2106,2024-07-26 21:30:31.210,6,false,0.0,4208.974, 4318.205, 4087.308, 4169.103, 4335.641
1722054631.2184,2024-07-26 21:30:31.218,7,false,0.0,4208.974, 4325.897, 4092.821, 4177.949, 4334.615
1722054631.2262,2024-07-26 21:30:31.226,8,false,0.0,4218.718, 4339.359, 4104.103, 4188.718, 4333.077
1722054631.234,2024-07-26 21:30:31.234,9,false,0.0,4218.59, 4345.128, 4118.077, 4189.615, 4329.103
1722054631.2418,2024-07-26 21:30:31.241,10,false,0.0,4232.564, 4361.282, 4133.974, 4195.256, 4344.231
1722054631.2496,2024-07-26 21:30:31.249,11,false,0.0,4241.026, 4347.436, 4134.744, 4197.564, 4345.256
1722054631.2574,2024-07-26 21:30:31.257,12,false,0.0,4226.539, 4315.256, 4125.897, 4194.103, 4322.308
1722054631.2653,2024-07-26 21:30:31.265,13,false,0.0,4218.59, 4326.154, 4126.795, 4201.41, 4314.359
1722054631.2731,2024-07-26 21:30:31.273,14,false,0.0,4224.359, 4356.667, 4132.949, 4212.82, 4320.128
1722054631.2809,2024-07-26 21:30:31.280,15,false,0.0,4228.333, 4365.769, 4137.82, 4211.795, 4317.82
1722054631.2887,2024-07-26 21:30:31.288,16,false,0.0,4225.513, 4356.667, 4140.128, 4204.744, 4309.231
1722054631.2965,2024-07-26 21:30:31.296,17,false,0.0,4208.846, 4333.205, 4127.82, 4198.846, 4291.41
1722054631.3043,2024-07-26 21:30:31.304,18,false,0.0,4192.692, 4324.231, 4106.282, 4191.923, 4270.641
1722054631.3121,2024-07-26 21:30:31.312,19,false,0.0,4199.231, 4342.949, 4096.923, 4186.282, 4268.974
1722054631.3199,2024-07-26 21:30:31.319,20,false,0.0,4213.205, 4348.974, 4100.769, 4189.359, 4284.103
1722054631.3278,2024-07-26 21:30:31.327,21,false,0.0,4222.82, 4351.282, 4105.256, 4202.18, 4298.461
1722054631.3356,2024-07-26 21:30:31.335,22,false,0.0,4231.154, 4368.718, 4101.154, 4207.436, 4297.692
1722054631.3434,2024-07-26 21:30:31.343,23,false,0.0,4224.872, 4352.051, 4089.231, 4193.718, 4279.744
1722054631.3512,2024-07-26 21:30:31.351,24,false,0.0,4216.154, 4317.692, 4087.949, 4186.667, 4274.103
1722054631.359,2024-07-26 21:30:31.359,25,false,0.0,4228.077, 4329.487, 4097.436, 4200.128, 4287.692
1722054631.3668,2024-07-26 21:30:31.366,26,false,0.0,4230.769, 4344.359, 4092.308, 4203.974, 4279.487
1722054631.3746,2024-07-26 21:30:31.374,27,false,0.0,4210.897, 4327.436, 4083.077, 4192.18, 4255.897
1722054631.3824,2024-07-26 21:30:31.382,28,false,0.0,4207.308, 4327.308, 4091.026, 4189.487, 4260.128
1722054631.3903,2024-07-26 21:30:31.390,29,false,0.0,4218.205, 4336.41, 4089.744, 4188.718, 4270.769
1722054631.3981,2024-07-26 21:30:31.398,30,false,0.0,4216.795, 4326.154, 4071.923, 4179.615, 4259.231
1722054631.4059,2024-07-26 21:30:31.405,31,false,0.0,4218.333, 4327.18, 4071.923, 4179.359, 4252.949
1722054631.4137,2024-07-26 21:30:31.413,32,false,0.0,4228.59, 4342.82, 4085.769, 4185.513, 4261.026
1722054631.4215,2024-07-26 21:30:31.421,33,false,0.0,4227.692, 4350.128, 4086.923, 4184.615, 4263.205
1722054631.4293,2024-07-26 21:30:31.429,34,false,0.0,4216.539, 4348.846, 4075.641, 4179.615, 4257.051
1722054631.4371,2024-07-26 21:30:31.437,35,false,0.0,4210.0, 4333.974, 4060.769, 4172.308, 4245.641
1722054631.4449,2024-07-26 21:30:31.444,36,false,0.0,4215.897, 4322.436, 4061.026, 4171.41, 4237.82
1722054631.4528,2024-07-26 21:30:31.452,37,false,0.0,4226.539, 4332.692, 4078.077, 4179.103, 4241.154
1722054631.4606,2024-07-26 21:30:31.460,38,false,0.0,4221.41, 4332.308, 4077.436, 4174.359, 4239.103
1722054631.4684,2024-07-26 21:30:31.468,39,false,0.0,4211.795, 4326.923, 4065.897, 4167.051, 4232.051
1722054631.4762,2024-07-26 21:30:31.476,40,false,0.0,4222.692, 4349.744, 4080.513, 4180.385, 4237.18
1722054631.484,2024-07-26 21:30:31.484,41,false,0.0,4231.41, 4360.769, 4098.974, 4187.051, 4236.667
1722054631.4918,2024-07-26 21:30:31.491,42,false,0.0,4216.923, 4341.795, 4096.539, 4175.769, 4221.923
1722054631.4996,2024-07-26 21:30:31.499,43,false,0.0,4209.359, 4338.718, 4092.949, 4176.026, 4218.846
1722054631.5074,2024-07-26 21:30:31.507,44,false,0.0,4221.026, 4345.385, 4089.487, 4181.282, 4225.128
1722054631.5153,2024-07-26 21:30:31.515,45,false,0.0,4222.82, 4343.333, 4083.461, 4175.128, 4219.359
1722054631.5231,2024-07-26 21:30:31.523,46,false,0.0,4206.667, 4348.205, 4086.795, 4172.692, 4207.18
1722054631.5309,2024-07-26 21:30:31.530,47,false,0.0,4200.641, 4346.282, 4090.513, 4177.436, 4205.769
1722054631.5387,2024-07-26 21:30:31.538,48,false,0.0,4217.18, 4337.82, 4087.949, 4185.641, 4217.949
1722054631.5465,2024-07-26 21:30:31.546,49,false,0.0,4225.385, 4341.923, 4083.974, 4192.051, 4220.897
1722054631.5543,2024-07-26 21:30:31.554,50,false,0.0,4210.897, 4336.41, 4073.846, 4179.615, 4200.513
1722054631.5621,2024-07-26 21:30:31.562,51,false,0.0,4204.744, 4329.359, 4071.282, 4161.795, 4188.59
1722054631.5699,2024-07-26 21:30:31.569,52,false,0.0,4208.077, 4348.59, 4082.564, 4160.0, 4198.077
1722054631.5778,2024-07-26 21:30:31.577,53,false,0.0,4200.897, 4350.128, 4084.744, 4159.487, 4197.949
1722054631.5856,2024-07-26 21:30:31.585,54,false,0.0,4203.974, 4321.923, 4085.641, 4159.615, 4193.974
1722054631.5934,2024-07-26 21:30:31.593,55,false,0.0,4215.256, 4324.103, 4098.59, 4169.103, 4202.82
1722054631.6012,2024-07-26 21:30:31.601,56,false,0.0,4201.923, 4348.461, 4102.051, 4168.333, 4203.461
1722054631.609,2024-07-26 21:30:31.609,57,false,0.0,4189.359, 4346.026, 4100.0, 4163.974, 4196.41
1722054631.6168,2024-07-26 21:30:31.616,58,false,0.0,4197.692, 4332.18, 4102.692, 4172.18, 4194.615
1722054631.6246,2024-07-26 21:30:31.624,59,false,0.0,4193.974, 4333.205, 4091.923, 4168.974, 4183.59
1722054631.6324,2024-07-26 21:30:31.632,60,false,0.0,4190.256, 4338.077, 4085.0, 4157.564, 4176.667
1722054631.6403,2024-07-26 21:30:31.640,61,false,0.0,4208.461, 4337.051, 4100.385, 4164.872, 4195.0
1722054631.6481,2024-07-26 21:30:31.648,62,false,0.0,4209.103, 4334.487, 4098.974, 4169.615, 4205.0
1722054631.6559,2024-07-26 21:30:31.655,63,false,0.0,4190.897, 4336.923, 4078.461, 4161.154, 4192.18
1722054631.6637,2024-07-26 21:30:31.663,64,false,0.0,4199.103, 4345.769, 4079.103, 4166.795, 4194.231
1722054631.6715,2024-07-26 21:30:31.671,65,false,0.0,4216.539, 4353.718, 4084.615, 4173.974, 4208.846
1722054631.6793,2024-07-26 21:30:31.679,66,false,0.0,4209.359, 4355.385, 4071.795, 4160.256, 4204.231
1722054631.6871,2024-07-26 21:30:31.687,67,false,0.0,4200.513, 4358.974, 4068.333, 4154.872, 4198.59
1722054631.6949,2024-07-26 21:30:31.694,68,false,0.0,4208.974, 4364.615, 4077.179, 4169.615, 4213.59
1722054631.7028,2024-07-26 21:30:31.702,69,false,0.0,4217.308, 4356.154, 4072.692, 4173.718, 4221.41
1722054631.7106,2024-07-26 21:30:31.710,70,false,0.0,4218.077, 4344.487, 4067.692, 4168.077, 4212.308
1722054631.7184,2024-07-26 21:30:31.718,71,false,0.0,4219.359, 4353.461, 4078.974, 4174.744, 4212.949
1722054631.7262,2024-07-26 21:30:31.726,72,false,0.0,4219.744, 4360.513, 4088.59, 4180.256, 4220.128
1722054631.734,2024-07-26 21:30:31.734,73,false,0.0,4216.539, 4347.18, 4088.333, 4178.205, 4220.769
1722054631.7418,2024-07-26 21:30:31.741,74,false,0.0,4217.18, 4341.282, 4087.179, 4185.769, 4229.103
1722054631.7496,2024-07-26 21:30:31.749,75,false,0.0,4221.667, 4345.128, 4083.461, 4191.667, 4237.949
1722054631.7574,2024-07-26 21:30:31.757,76,false,0.0,4222.82, 4347.82, 4080.897, 4184.487, 4235.513
1722054631.7653,2024-07-26 21:30:31.765,77,false,0.0,4221.795, 4363.461, 4083.974, 4186.154, 4242.18
1722054631.7731,2024-07-26 21:30:31.773,78,false,0.0,4218.718, 4370.897, 4081.154, 4192.564, 4254.744
1722054631.7809,2024-07-26 21:30:31.780,79,false,0.0,4215.641, 4348.461, 4074.872, 4184.359, 4257.051
1722054631.7887,2024-07-26 21:30:31.788,80,false,0.0,4218.718, 4336.667, 4074.744, 4176.282, 4266.282
1722054631.7965,2024-07-26 21:30:31.796,81,false,0.0,4216.667, 4350.256, 4071.923, 4172.436, 4278.718
1722054631.8043,2024-07-26 21:30:31.804,82,false,0.0,4207.051, 4358.59, 4073.461, 4164.359, 4278.461
1722054631.8121,2024-07-26 21:30:31.812,83,false,0.0,4208.846, 4355.769, 4088.077, 4165.385, 4285.385
1722054631.8199,2024-07-26 21:30:31.819,84,false,0.0,4206.923, 4341.41, 4084.231, 4165.769, 4295.513
1722054631.8278,2024-07-26 21:30:31.827,85,false,0.0,4188.59, 4323.846, 4063.461, 4153.718, 4295.385
1722054631.8356,2024-07-26 21:30:31.835,86,false,0.0,4194.359, 4333.205, 4071.795, 4160.256, 4319.359
1722054631.8434,2024-07-26 21:30:31.843,87,false,0.0,4220.897, 4352.308, 4092.179, 4177.692, 4357.18
1722054631.8512,2024-07-26 21:30:31.851,88,false,0.0,4215.385, 4346.539, 4088.846, 4166.539, 4359.615
1722054631.859,2024-07-26 21:30:31.859,89,false,0.0,4197.436, 4342.564, 4088.59, 4155.256, 4357.051
1722054631.8668,2024-07-26 21:30:31.866,90,false,0.0,4204.359, 4357.436, 4097.051, 4169.231, 4379.615
1722054631.8746,2024-07-26 21:30:31.874,91,false,0.0,4208.846, 4360.256, 4085.641, 4172.436, 4387.308
1722054631.8824,2024-07-26 21:30:31.882,92,false,0.0,4201.154, 4352.308, 4073.461, 4160.897, 4378.333
1722054631.8903,2024-07-26 21:30:31.890,93,false,0.0,4200.513, 4354.744, 4075.128, 4158.974, 4384.872
1722054631.8981,2024-07-26 21:30:31.898,94,false,0.0,4200.128, 4360.513, 4067.949, 4159.359, 4394.103
1722054631.9059,2024-07-26 21:30:31.905,95,false,0.0,4198.974, 4362.949, 4061.154, 4157.82, 4395.769
1722054631.9137,2024-07-26 21:30:31.913,96,false,0.0,4200.513, 4357.82, 4069.487, 4156.282, 4401.923
1722054631.9215,2024-07-26 21:30:31.921,97,false,0.0,4200.0, 4344.231, 4076.41, 4150.769, 4414.487
1722054631.9293,2024-07-26 21:30:31.929,98,false,0.0,4212.436, 4345.385, 4083.205, 4152.949, 4435.769
1722054631.9371,2024-07-26 21:30:31.937,99,false,0.0,4235.0, 4360.513, 4088.461, 4161.795, 4456.539
1722054631.9449,2024-07-26 21:30:31.944,100,false,0.0,4240.0, 4356.795, 4079.487, 4161.41, 4460.513
1722054631.9528,2024-07-26 21:30:31.952,101,false,0.0,4240.897, 4347.82, 4080.769, 4161.154, 4464.103
1722054631.9606,2024-07-26 21:30:31.960,102,false,0.0,4255.769, 4359.744, 4102.051, 4165.128, 4481.41
1722054631.9684,2024-07-26 21:30:31.968,103,false,0.0,4266.154, 4370.256, 4108.59, 4165.897, 4494.615
1722054631.9762,2024-07-26 21:30:31.976,104,false,0.0,4266.026, 4368.59, 4099.615, 4173.333, 4491.539
1722054631.984,2024-07-26 21:30:31.984,105,false,0.0,4258.077, 4363.718, 4092.821, 4179.231, 4475.256
1722054631.9918,2024-07-26 21:30:31.991,106,false,0.0,4244.231, 4347.18, 4082.821, 4169.872, 4459.744
1722054631.9996,2024-07-26 21:30:31.999,107,false,0.0,4240.0, 4335.641, 4075.769, 4166.154, 4456.795
1722054632.0074,2024-07-26 21:30:32.007,108,false,0.0,4236.667, 4347.564, 4076.154, 4167.051, 4447.82
1722054632.0153,2024-07-26 21:30:32.015,109,false,0.0,4227.308, 4354.744, 4079.744, 4160.0, 4430.0
1722054632.0231,2024-07-26 21:30:32.023,110,false,0.0,4240.641, 4354.103, 4100.0, 4169.359, 4436.41
1722054632.0309,2024-07-26 21:30:32.030,111,false,0.0,4264.103, 4368.846, 4120.128, 4186.795, 4455.0
1722054632.0387,2024-07-26 21:30:32.038,112,false,0.0,4260.128, 4378.461, 4108.461, 4176.667, 4446.026
1722054632.0465,2024-07-26 21:30:32.046,113,false,0.0,4243.846, 4360.769, 4091.923, 4156.795, 4421.667
1722054632.0543,2024-07-26 21:30:32.054,114,false,0.0,4235.128, 4330.769, 4096.923, 4150.513, 4407.308
1722054632.0621,2024-07-26 21:30:32.062,115,false,0.0,4239.231, 4324.487, 4107.564, 4155.769, 4406.282
1722054632.0699,2024-07-26 21:30:32.069,116,false,0.0,4258.59, 4369.744, 4115.769, 4170.769, 4412.308
1722054632.0778,2024-07-26 21:30:32.077,117,false,0.0,4255.897, 4408.205, 4110.128, 4168.846, 4398.59
1722054632.0856,2024-07-26 21:30:32.085,118,false,0.0,4226.026, 4373.205, 4093.846, 4146.539, 4369.103
1722054632.0934,2024-07-26 21:30:32.093,119,false,0.0,4227.051, 4343.205, 4100.513, 4153.461, 4369.231
1722054632.1012,2024-07-26 21:30:32.101,120,false,0.0,4247.949, 4373.461, 4114.231, 4176.795, 4381.667
1722054632.109,2024-07-26 21:30:32.109,121,false,0.0,4237.308, 4370.256, 4101.667, 4166.795, 4361.026
1722054632.1168,2024-07-26 21:30:32.116,122,false,0.0,4223.333, 4331.282, 4094.487, 4155.385, 4341.154
1722054632.1246,2024-07-26 21:30:32.124,123,false,0.0,4231.41, 4344.615, 4102.692, 4165.769, 4348.718
1722054632.1324,2024-07-26 21:30:32.132,124,false,0.0,4232.18, 4361.667, 4095.385, 4158.59, 4342.308
1722054632.1403,2024-07-26 21:30:32.140,125,false,0.0,4225.897, 4338.59, 4093.077, 4144.744, 4321.282
1722054632.1481,2024-07-26 21:30:32.148,126,false,0.0,4235.385, 4345.0, 4115.256, 4161.795, 4326.539
1722054632.1559,2024-07-26 21:30:32.155,127,false,0.0,4253.846, 4367.436, 4126.795, 4182.949, 4342.82
1722054632.1637,2024-07-26 21:30:32.163,0,false,0.0,4261.282, 4360.385, 4118.974, 4181.667, 4332.18
1722054632.1715,2024-07-26 21:30:32.171,1,false,0.0,4257.308, 4373.461, 4115.769, 4177.308, 4314.744
1722054632.1793,2024-07-26 21:30:32.179,2,false,0.0,4265.513, 4393.333, 4117.692, 4180.256, 4326.923
1722054632.1871,2024-07-26 21:30:32.187,3,false,0.0,4287.82, 4366.923, 4112.949, 4180.128, 4347.692
1722054632.1949,2024-07-26 21:30:32.194,4,false,0.0,4290.769, 4350.0, 4101.154, 4173.077, 4338.718
1722054632.2028,2024-07-26 21:30:32.202,5,false,0.0,4272.18, 4359.615, 4090.256, 4161.923, 4312.82
1722054632.2106,2024-07-26 21:30:32.210,6,false,0.0,4265.385, 4343.59, 4090.256, 4156.154, 4303.59
1722054632.2184,2024-07-26 21:30:32.218,7,false,0.0,4277.308, 4350.0, 4104.487, 4169.359, 4313.077
1722054632.2262,2024-07-26 21:30:32.226,8,false,0.0,4291.282, 4399.359, 4121.41, 4191.282, 4320.769
1722054632.234,2024-07-26 21:30:32.234,9,false,0.0,4289.872, 4395.641, 4121.026, 4192.82, 4309.615
1722054632.2418,2024-07-26 21:30:32.241,10,false,0.0,4271.539, 4347.308, 4105.0, 4176.667, 4284.615
1722054632.2496,2024-07-26 21:30:32.249,11,false,0.0,4262.051, 4344.872, 4100.769, 4170.641, 4271.41
1722054632.2574,2024-07-26 21:30:32.257,12,false,0.0,4269.231, 4367.308, 4111.667, 4176.282, 4275.641
1722054632.2653,2024-07-26 21:30:32.265,13,false,0.0,4272.82, 4372.436, 4117.18, 4180.256, 4282.82
1722054632.2731,2024-07-26 21:30:32.273,14,false,0.0,4275.385, 4378.59, 4115.769, 4183.333, 4289.487
1722054632.2809,2024-07-26 21:30:32.280,15,false,0.0,4279.359, 4384.487, 4107.18, 4183.974, 4288.718
1722054632.2887,2024-07-26 21:30:32.288,16,false,0.0,4268.461, 4381.154, 4092.051, 4178.846, 4273.59
1722054632.2965,2024-07-26 21:30:32.296,17,false,0.0,4254.872, 4374.615, 4091.41, 4174.103, 4265.641
1722054632.3043,2024-07-26 21:30:32.304,18,false,0.0,4252.18, 4363.333, 4099.487, 4165.897, 4268.077
1722054632.3121,2024-07-26 21:30:32.312,19,false,0.0,4247.436, 4362.436, 4091.154, 4157.308, 4259.615
1722054632.3199,2024-07-26 21:30:32.319,20,false,0.0,4252.82, 4373.077, 4091.282, 4169.231, 4259.872
1722054632.3278,2024-07-26 21:30:32.327,21,false,0.0,4278.333, 4368.205, 4115.769, 4188.974, 4284.359
1722054632.3356,2024-07-26 21:30:32.335,22,false,0.0,4285.641, 4361.282, 4125.641, 4182.692, 4290.256
1722054632.3434,2024-07-26 21:30:32.343,23,false,0.0,4266.41, 4370.513, 4113.974, 4165.641, 4268.974
1722054632.3512,2024-07-26 21:30:32.351,24,false,0.0,4261.539, 4370.897, 4109.744, 4169.359, 4265.513
1722054632.359,2024-07-26 21:30:32.359,25,false,0.0,4274.615, 4361.667, 4112.308, 4180.769, 4277.18
1722054632.3668,2024-07-26 21:30:32.366,26,false,0.0,4281.923, 4365.897, 4116.923, 4182.051, 4276.539
1722054632.3746,2024-07-26 21:30:32.374,27,false,0.0,4281.282, 4380.641, 4126.795, 4180.128, 4274.231
1722054632.3824,2024-07-26 21:30:32.382,28,false,0.0,4267.436, 4387.308, 4124.103, 4176.667, 4268.205
1722054632.3903,2024-07-26 21:30:32.390,29,false,0.0,4242.436, 4370.385, 4104.872, 4171.923, 4243.205
1722054632.3981,2024-07-26 21:30:32.398,30,false,0.0,4231.795, 4347.564, 4089.359, 4169.872, 4219.103
1722054632.4059,2024-07-26 21:30:32.405,31,false,0.0,4229.103, 4350.641, 4080.769, 4162.051, 4209.359
1722054632.4137,2024-07-26 21:30:32.413,32,false,0.0,4210.0, 4357.18, 4078.974, 4151.795, 4200.897
1722054632.4215,2024-07-26 21:30:32.421,33,false,0.0,4196.026, 4348.59, 4088.077, 4159.359, 4198.974
1722054632.4293,2024-07-26 21:30:32.429,34,false,0.0,4205.897, 4350.641, 4093.205, 4173.59, 4210.0
1722054632.4371,2024-07-26 21:30:32.437,35,false,0.0,4213.077, 4353.461, 4092.821, 4170.897, 4221.154
1722054632.4449,2024-07-26 21:30:32.444,36,false,0.0,4210.897, 4347.308, 4105.128, 4165.128, 4230.0
1722054632.4528,2024-07-26 21:30:32.452,37,false,0.0,4210.128, 4353.59, 4111.154, 4166.667, 4233.205
1722054632.4606,2024-07-26 21:30:32.460,38,false,0.0,4197.18, 4345.128, 4091.923, 4161.282, 4222.564
1722054632.4684,2024-07-26 21:30:32.468,39,false,0.0,4182.82, 4316.154, 4083.974, 4159.103, 4220.897
1722054632.4762,2024-07-26 21:30:32.476,40,false,0.0,4194.744, 4322.692, 4100.385, 4171.923, 4243.205
1722054632.484,2024-07-26 21:30:32.484,41,false,0.0,4210.385, 4355.769, 4105.641, 4178.461, 4256.026
1722054632.4918,2024-07-26 21:30:32.491,42,false,0.0,4208.077, 4370.256, 4104.487, 4176.667, 4249.231
1722054632.4996,2024-07-26 21:30:32.499,43,false,0.0,4207.308, 4367.436, 4117.18, 4181.667, 4252.18
1722054632.5074,2024-07-26 21:30:32.507,44,false,0.0,4210.897, 4351.795, 4118.974, 4178.974, 4259.744
1722054632.5153,2024-07-26 21:30:32.515,45,false,0.0,4210.513, 4345.641, 4108.59, 4166.795, 4256.539
1722054632.5231,2024-07-26 21:30:32.523,46,false,0.0,4213.718, 4361.026, 4112.308, 4169.615, 4256.923
1722054632.5309,2024-07-26 21:30:32.530,47,false,0.0,4209.231, 4352.692, 4113.59, 4176.795, 4254.359
1722054632.5387,2024-07-26 21:30:32.538,48,false,0.0,4194.744, 4341.795, 4101.026, 4174.103, 4237.564
1722054632.5465,2024-07-26 21:30:32.546,49,false,0.0,4195.769, 4371.539, 4095.385, 4178.846, 4232.564
1722054632.5543,2024-07-26 21:30:32.554,50,false,0.0,4204.103, 4375.769, 4090.641, 4187.18, 4240.897
1722054632.5621,2024-07-26 21:30:32.562,51,false,0.0,4202.949, 4351.667, 4081.795, 4184.487, 4239.744
1722054632.5699,2024-07-26 21:30:32.569,52,false,0.0,4207.436, 4370.0, 4088.59, 4180.897, 4240.128
1722054632.5778,2024-07-26 21:30:32.577,53,false,0.0,4210.897, 4375.897, 4098.461, 4177.18, 4242.564
1722054632.5856,2024-07-26 21:30:32.585,54,false,0.0,4203.718, 4345.256, 4096.41, 4172.18, 4229.872
1722054632.5934,2024-07-26 21:30:32.593,55,false,0.0,4211.923, 4361.923, 4099.615, 4181.923, 4225.128
1722054632.6012,2024-07-26 21:30:32.601,56,false,0.0,4224.872, 4388.718, 4100.0, 4192.82, 4231.923
1722054632.609,2024-07-26 21:30:32.609,57,false,0.0,4213.718, 4366.154, 4085.769, 4181.282, 4216.923
1722054632.6168,2024-07-26 21:30:32.616,58,false,0.0,4205.897, 4356.539, 4084.487, 4167.692, 4200.641
1722054632.6246,2024-07-26 21:30:32.624,59,false,0.0,4213.461, 4361.154, 4097.564, 4169.744, 4209.231
1722054632.6324,2024-07-26 21:30:32.632,60,false,0.0,4209.359, 4348.077, 4098.461, 4178.077, 4210.385
1722054632.6403,2024-07-26 21:30:32.640,61,false,0.0,4207.18, 4358.205, 4092.692, 4189.744, 4199.359
1722054632.6481,2024-07-26 21:30:32.648,62,false,0.0,4221.026, 4371.41, 4091.539, 4196.41, 4201.026
1722054632.6559,2024-07-26 21:30:32.655,63,false,0.0,4225.897, 4358.205, 4094.359, 4192.308, 4201.282
1722054632.6637,2024-07-26 21:30:32.663,64,false,0.0,4224.359, 4373.205, 4106.026, 4192.564, 4194.231
1722054632.6715,2024-07-26 21:30:32.671,65,false,0.0,4227.949, 4390.0, 4114.744, 4195.0, 4195.641
1722054632.6793,2024-07-26 21:30:32.679,66,false,0.0,4217.564, 4354.487, 4103.974, 4186.923, 4192.436
1722054632.6871,2024-07-26 21:30:32.687,67,false,0.0,4201.41, 4339.744, 4090.128, 4181.667, 4178.461
1722054632.6949,2024-07-26 21:30:32.694,68,false,0.0,4206.795, 4371.41, 4089.487, 4185.897, 4173.59
1722054632.7028,2024-07-26 21:30:32.702,69,false,0.0,4220.0, 4376.282, 4093.59, 4188.59, 4176.539
1722054632.7106,2024-07-26 21:30:32.710,70,false,0.0,4219.231, 4362.436, 4097.949, 4189.231, 4173.205
1722054632.7184,2024-07-26 21:30:32.718,71,false,0.0,4211.026, 4366.539, 4101.41, 4183.205, 4168.59
1722054632.7262,2024-07-26 21:30:32.726,72,false,0.0,4209.359, 4366.41, 4101.539, 4173.974, 4169.615
1722054632.734,2024-07-26 21:30:32.734,73,false,0.0,4215.513, 4368.59, 4102.436, 4180.641, 4171.282
1722054632.7418,2024-07-26 21:30:32.741,74,false,0.0,4217.436, 4384.615, 4102.051, 4186.282, 4163.333
1722054632.7496,2024-07-26 21:30:32.749,75,false,0.0,4213.205, 4382.051, 4095.769, 4169.744, 4152.82
1722054632.7574,2024-07-26 21:30:32.757,76,false,0.0,4220.128, 4369.359, 4096.282, 4163.974, 4163.333
1722054632.7653,2024-07-26 21:30:32.765,77,false,0.0,4230.513, 4374.872, 4107.051, 4181.154, 4183.205
1722054632.7731,2024-07-26 21:30:32.773,78,false,0.0,4221.154, 4374.872, 4109.103, 4186.154, 4174.359
1722054632.7809,2024-07-26 21:30:32.780,79,false,0.0,4212.564, 4362.564, 4102.564, 4179.487, 4153.846
1722054632.7887,2024-07-26 21:30:32.788,80,false,0.0,4225.128, 4363.846, 4101.667, 4179.359, 4159.359
1722054632.7965,2024-07-26 21:30:32.796,81,false,0.0,4228.846, 4366.923, 4098.333, 4175.128, 4166.026
1722054632.8043,2024-07-26 21:30:32.804,82,false,0.0,4213.59, 4354.744, 4090.256, 4171.282, 4152.308
1722054632.8121,2024-07-26 21:30:32.812,83,false,0.0,4207.564, 4340.256, 4089.615, 4176.026, 4149.359
1722054632.8199,2024-07-26 21:30:32.819,84,false,0.0,4207.82, 4331.41, 4086.41, 4171.282, 4155.769
1722054632.8278,2024-07-26 21:30:32.827,85,false,0.0,4200.897, 4333.333, 4079.872, 4163.846, 4145.0
1722054632.8356,2024-07-26 21:30:32.835,86,false,0.0,4202.564, 4339.872, 4091.41, 4171.41, 4140.513
1722054632.8434,2024-07-26 21:30:32.843,87,false,0.0,4208.846, 4334.359, 4103.846, 4172.308, 4151.282
1722054632.8512,2024-07-26 21:30:32.851,88,false,0.0,4201.282, 4345.897, 4097.18, 4162.18, 4148.205
1722054632.859,2024-07-26 21:30:32.859,89,false,0.0,4200.0, 4382.949, 4100.256, 4170.897, 4148.59
1722054632.8668,2024-07-26 21:30:32.866,90,false,0.0,4213.59, 4377.82, 4113.077, 4185.897, 4165.513
1722054632.8746,2024-07-26 21:30:32.874,91,false,0.0,4213.59, 4341.539, 4105.769, 4177.949, 4161.154
1722054632.8824,2024-07-26 21:30:32.882,92,false,0.0,4206.282, 4355.769, 4096.923, 4167.949, 4144.231
1722054632.8903,2024-07-26 21:30:32.890,93,false,0.0,4213.077, 4381.923, 4100.128, 4172.18, 4145.769
1722054632.8981,2024-07-26 21:30:32.898,94,false,0.0,4211.41, 4365.513, 4092.564, 4167.18, 4140.513
1722054632.9059,2024-07-26 21:30:32.905,95,false,0.0,4196.026, 4358.461, 4084.231, 4153.846, 4126.41
1722054632.9137,2024-07-26 21:30:32.913,96,false,0.0,4199.487, 4365.385, 4088.974, 4159.744, 4133.205
1722054632.9215,2024-07-26 21:30:32.921,97,false,0.0,4217.308, 4355.0, 4092.051, 4177.949, 4146.539
1722054632.9293,2024-07-26 21:30:32.929,98,false,0.0,4224.103, 4361.026, 4096.795, 4183.333, 4152.949
1722054632.9371,2024-07-26 21:30:32.937,99,false,0.0,4227.18, 4371.282, 4106.282, 4178.333, 4161.026
1722054632.9449,2024-07-26 21:30:32.944,100,false,0.0,4233.59, 4353.59, 4108.718, 4177.564, 4160.385
1722054632.9528,2024-07-26 21:30:32.952,101,false,0.0,4231.923, 4351.923, 4111.154, 4178.974, 4155.0
1722054632.9606,2024-07-26 21:30:32.960,102,false,0.0,4221.539, 4366.41, 4111.026, 4174.872, 4153.846
1722054632.9684,2024-07-26 21:30:32.968,103,false,0.0,4216.539, 4363.718, 4099.744, 4171.667, 4147.436
1722054632.9762,2024-07-26 21:30:32.976,104,false,0.0,4226.539, 4371.539, 4100.641, 4180.897, 4151.795
1722054632.984,2024-07-26 21:30:32.984,105,false,0.0,4241.282, 4375.641, 4115.769, 4193.974, 4170.385
1722054632.9918,2024-07-26 21:30:32.991,106,false,0.0,4245.128, 4352.308, 4119.359, 4195.0, 4172.82
1722054632.9996,2024-07-26 21:30:32.999,107,false,0.0,4244.744, 4355.256, 4118.461, 4190.385, 4173.974
1722054633.0074,2024-07-26 21:30:33.007,108,false,0.0,4243.718, 4369.359, 4118.846, 4189.231, 4188.333
1722054633.0153,2024-07-26 21:30:33.015,109,false,0.0,4234.359, 4345.513, 4111.667, 4181.923, 4188.59
1722054633.0231,2024-07-26 21:30:33.023,110,false,0.0,4232.949, 4346.282, 4115.513, 4172.18, 4196.282
1722054633.0309,2024-07-26 21:30:33.030,111,false,0.0,4242.82, 4382.564, 4125.897, 4175.0, 4231.154
1722054633.0387,2024-07-26 21:30:33.038,112,false,0.0,4234.487, 4375.128, 4114.103, 4178.333, 4242.82
1722054633.0465,2024-07-26 21:30:33.046,113,false,0.0,4219.487, 4351.41, 4101.282, 4168.974, 4234.359
1722054633.0543,2024-07-26 21:30:33.054,114,false,0.0,4225.256, 4362.949, 4108.461, 4162.692, 4247.436
1722054633.0621,2024-07-26 21:30:33.062,115,false,0.0,4223.59, 4365.641, 4107.308, 4161.282, 4251.026
1722054633.0699,2024-07-26 21:30:33.069,116,false,0.0,4208.205, 4349.103, 4099.744, 4154.359, 4238.846
