Time,Timestamp,Counter,Interpolated,Contact Quality,AF3,T7,Pz,T8,AF4
1722054287.5934,2024-07-26 21:24:47.593,55,false,0.0,4228.846, 4398.205, 4125.641, 4201.667, 4308.846
1722054287.6012,2024-07-26 21:24:47.601,56,false,0.0,4229.872, 4394.231, 4134.744, 4208.333, 4320.513
1722054287.609,2024-07-26 21:24:47.609,57,false,0.0,4218.205, 4386.026, 4128.077, 4201.282, 4315.256
1722054287.6168,2024-07-26 21:24:47.616,58,false,0.0,4209.359, 4379.615, 4117.308, 4197.308, 4300.0
1722054287.6246,2024-07-26 21:24:47.624,59,false,0.0,4207.82, 4365.769, 4110.897, 4192.564, 4288.846
1722054287.6324,2024-07-26 21:24:47.632,60,false,0.0,4200.0, 4363.077, 4104.615, 4181.923, 4286.282
1722054287.6403,2024-07-26 21:24:47.640,61,false,0.0,4208.846, 4376.539, 4117.949, 4190.769, 4301.282
1722054287.6481,2024-07-26 21:24:47.648,62,false,0.0,4234.872, 4381.026, 4144.872, 4207.564, 4322.18
1722054287.6559,2024-07-26 21:24:47.655,63,false,0.0,4236.026, 4377.18, 4139.615, 4202.051, 4322.308
1722054287.6637,2024-07-26 21:24:47.663,64,false,0.0,4223.333, 4381.539, 4116.41, 4194.487, 4313.974
1722054287.6715,2024-07-26 21:24:47.671,65,false,0.0,4224.872, 4381.923, 4118.974, 4196.539, 4317.692
1722054287.6793,2024-07-26 21:24:47.679,66,false,0.0,4220.513, 4372.949, 4123.205, 4189.615, 4315.513
1722054287.6871,2024-07-26 21:24:47.687,67,false,0.0,4213.59, 4372.692, 4113.333, 4189.231, 4303.718
1722054287.6949,2024-07-26 21:24:47.694,68,false,0.0,4219.359, 4372.051, 4110.513, 4202.18, 4297.949
1722054287.7028,2024-07-26 21:24:47.702,69,false,0.0,4212.692, 4359.487, 4101.41, 4196.282, 4288.974
1722054287.7106,2024-07-26 21:24:47.710,70,false,0.0,4198.974, 4360.769, 4090.256, 4180.769, 4279.103
1722054287.7184,2024-07-26 21:24:47.718,71,false,0.0,4204.744, 4371.026, 4106.282, 4185.256, 4286.667
1722054287.7262,2024-07-26 21:24:47.726,72,false,0.0,4208.59, 4360.385, 4117.18, 4189.103, 4293.59
1722054287.734,2024-07-26 21:24:47.734,73,false,0.0,4204.359, 4358.077, 4102.692, 4181.154, 4284.487
1722054287.7418,2024-07-26 21:24:47.741,74,false,0.0,4211.923, 4381.539, 4104.231, 4185.0, 4277.308
1722054287.7496,2024-07-26 21:24:47.749,75,false,0.0,4212.051, 4383.333, 4115.769, 4194.872, 4274.231
1722054287.7574,2024-07-26 21:24:47.757,76,false,0.0,4200.769, 4360.897, 4107.692, 4193.718, 4271.154
1722054287.7653,2024-07-26 21:24:47.765,77,false,0.0,4205.128, 4354.872, 4100.897, 4192.949, 4276.282
1722054287.7731,2024-07-26 21:24:47.773,78,false,0.0,4212.308, 4358.461, 4099.872, 4197.18, 4279.103
1722054287.7809,2024-07-26 21:24:47.780,79,false,0.0,4208.333, 4361.282, 4094.231, 4202.18, 4275.641
1722054287.7887,2024-07-26 21:24:47.788,80,false,0.0,4212.692, 4373.59, 4098.461, 4209.872, 4281.154
1722054287.7965,2024-07-26 21:24:47.796,81,false,0.0,4216.282, 4381.154, 4099.103, 4206.795, 4284.872
1722054287.8043,2024-07-26 21:24:47.804,82,false,0.0,4203.974, 4370.769, 4081.539, 4190.256, 4275.769
1722054287.8121,2024-07-26 21:24:47.812,83,false,0.0,4193.59, 4350.128, 4071.282, 4180.897, 4269.744
1722054287.8199,2024-07-26 21:24:47.819,84,false,0.0,4188.461, 4337.692, 4067.051, 4176.282, 4265.128
1722054287.8278,2024-07-26 21:24:47.827,85,false,0.0,4183.718, 4355.769, 4063.461, 4170.897, 4258.846
1722054287.8356,2024-07-26 21:24:47.835,86,false,0.0,4193.077, 4374.615, 4085.769, 4179.359, 4268.974
1722054287.8434,2024-07-26 21:24:47.843,87,false,0.0,4203.974, 4352.436, 4109.487, 4186.795, 4282.564
1722054287.8512,2024-07-26 21:24:47.851,88,false,0.0,4200.128, 4343.846, 4104.103, 4179.615, 4278.59
1722054287.859,2024-07-26 21:24:47.859,89,false,0.0,4201.667, 4383.205, 4105.256, 4182.564, 4278.846
1722054287.8668,2024-07-26 21:24:47.866,90,false,0.0,4209.615, 4389.615, 4114.744, 4191.923, 4289.231
1722054287.8746,2024-07-26 21:24:47.874,91,false,0.0,4212.82, 4357.82, 4103.974, 4190.128, 4289.872
1722054287.8824,2024-07-26 21:24:47.882,92,false,0.0,4224.615, 4367.051, 4104.359, 4196.154, 4291.026
1722054287.8903,2024-07-26 21:24:47.890,93,false,0.0,4227.564, 4381.795, 4116.41, 4198.205, 4291.539
1722054287.8981,2024-07-26 21:24:47.898,94,false,0.0,4203.077, 4354.744, 4099.231, 4179.103, 4273.333
1722054287.9059,2024-07-26 21:24:47.905,95,false,0.0,4196.282, 4347.692, 4086.923, 4179.487, 4261.923
1722054287.9137,2024-07-26 21:24:47.913,96,false,0.0,4213.718, 4367.18, 4103.59, 4195.385, 4269.103
1722054287.9215,2024-07-26 21:24:47.921,97,false,0.0,4203.59, 4364.359, 4099.103, 4177.051, 4256.154
1722054287.9293,2024-07-26 21:24:47.929,98,false,0.0,4184.872, 4361.282, 4083.59, 4155.0, 4235.128
1722054287.9371,2024-07-26 21:24:47.937,99,false,0.0,4198.077, 4366.282, 4097.692, 4169.872, 4244.487
1722054287.9449,2024-07-26 21:24:47.944,100,false,0.0,4210.128, 4358.333, 4106.539, 4185.897, 4251.923
1722054287.9528,2024-07-26 21:24:47.952,101,false,0.0,4203.718, 4360.897, 4095.0, 4182.564, 4234.615
1722054287.9606,2024-07-26 21:24:47.960,102,false,0.0,4207.051, 4362.308, 4098.846, 4179.872, 4234.103
1722054287.9684,2024-07-26 21:24:47.968,103,false,0.0,4215.641, 4336.282, 4109.231, 4180.641, 4252.18
1722054287.9762,2024-07-26 21:24:47.976,104,false,0.0,4214.103, 4334.744, 4108.718, 4180.513, 4254.872
1722054287.984,2024-07-26 21:24:47.984,105,false,0.0,4217.18, 4370.256, 4115.256, 4185.769, 4257.82
1722054287.9918,2024-07-26 21:24:47.991,106,false,0.0,4229.359, 4385.641, 4128.718, 4198.59, 4273.974
1722054287.9996,2024-07-26 21:24:47.999,107,false,0.0,4229.872, 4380.769, 4130.385, 4203.974, 4269.615
1722054288.0074,2024-07-26 21:24:48.007,108,false,0.0,4212.436, 4369.359, 4119.231, 4185.897, 4245.128
1722054288.0153,2024-07-26 21:24:48.015,109,false,0.0,4197.564, 4346.41, 4105.513, 4166.026, 4240.513
1722054288.0231,2024-07-26 21:24:48.023,110,false,0.0,4197.564, 4346.667, 4100.769, 4173.077, 4252.051
1722054288.0309,2024-07-26 21:24:48.030,111,false,0.0,4204.231, 4361.795, 4105.897, 4186.282, 4254.359
1722054288.0387,2024-07-26 21:24:48.038,112,false,0.0,4213.846, 4353.461, 4109.487, 4181.667, 4255.641
1722054288.0465,2024-07-26 21:24:48.046,113,false,0.0,4221.667, 4361.539, 4109.615, 4173.718, 4259.231
1722054288.0543,2024-07-26 21:24:48.054,114,false,0.0,4215.641, 4382.436, 4107.692, 4174.872, 4249.231
1722054288.0621,2024-07-26 21:24:48.062,115,false,0.0,4207.692, 4356.795, 4102.18, 4183.333, 4237.82
1722054288.0699,2024-07-26 21:24:48.069,116,false,0.0,4213.974, 4340.0, 4103.205, 4194.231, 4244.231
1722054288.0778,2024-07-26 21:24:48.077,117,false,0.0,4218.718, 4366.795, 4112.308, 4196.667, 4250.769
1722054288.0856,2024-07-26 21:24:48.085,118,false,0.0,4209.872, 4352.051, 4111.026, 4188.718, 4238.461
1722054288.0934,2024-07-26 21:24:48.093,119,false,0.0,4200.513, 4323.846, 4100.897, 4180.641, 4224.103
1722054288.1012,2024-07-26 21:24:48.101,120,false,0.0,4202.82, 4362.18, 4102.692, 4180.385, 4227.82
1722054288.109,2024-07-26 21:24:48.109,121,false,0.0,4213.461, 4382.949, 4108.461, 4186.154, 4237.308
1722054288.1168,2024-07-26 21:24:48.116,122,false,0.0,4216.026, 4345.128, 4099.103, 4184.615, 4230.385
1722054288.1246,2024-07-26 21:24:48.124,123,false,0.0,4211.026, 4350.513, 4090.256, 4176.026, 4219.615
1722054288.1324,2024-07-26 21:24:48.132,124,false,0.0,4216.41, 4386.667, 4097.308, 4178.718, 4224.615
1722054288.1403,2024-07-26 21:24:48.140,125,false,0.0,4221.539, 4369.359, 4102.564, 4188.461, 4230.513
1722054288.1481,2024-07-26 21:24:48.148,126,false,0.0,4223.846, 4353.205, 4110.641, 4199.231, 4241.282
1722054288.1559,2024-07-26 21:24:48.155,127,false,0.0,4262.308, 4399.744, 4149.231, 4232.051, 4285.513
1722054288.1637,2024-07-26 21:24:48.163,0,false,0.0,4317.692, 4450.0, 4193.974, 4271.41, 4328.974
1722054288.1715,2024-07-26 21:24:48.171,1,false,0.0,4323.974, 4455.769, 4201.154, 4272.436, 4323.974
1722054288.1793,2024-07-26 21:24:48.179,2,false,0.0,4304.103, 4441.026, 4185.769, 4251.282, 4311.539
1722054288.1871,2024-07-26 21:24:48.187,3,false,0.0,4314.359, 4436.795, 4182.692, 4254.103, 4330.897
1722054288.1949,2024-07-26 21:24:48.194,4,false,0.0,4335.385, 4453.461, 4195.513, 4278.205, 4348.461
1722054288.2028,2024-07-26 21:24:48.202,5,false,0.0,4343.974, 4475.769, 4211.795, 4294.231, 4351.41
1722054288.2106,2024-07-26 21:24:48.210,6,false,0.0,4346.923, 4473.846, 4214.103, 4287.949, 4355.385
1722054288.2184,2024-07-26 21:24:48.218,7,false,0.0,4331.667, 4448.846, 4193.59, 4267.82, 4347.308
1722054288.2262,2024-07-26 21:24:48.226,8,false,0.0,4305.256, 4428.718, 4169.487, 4253.974, 4331.282
1722054288.234,2024-07-26 21:24:48.234,9,false,0.0,4302.308, 4423.333, 4161.667, 4251.667, 4336.923
1722054288.2418,2024-07-26 21:24:48.241,10,false,0.0,4311.41, 4428.461, 4163.333, 4250.128, 4350.513
1722054288.2496,2024-07-26 21:24:48.249,11,false,0.0,4303.461, 4443.333, 4162.308, 4242.949, 4346.539
1722054288.2574,2024-07-26 21:24:48.257,12,false,0.0,4296.026, 4453.974, 4163.461, 4236.41, 4346.795
1722054288.2653,2024-07-26 21:24:48.265,13,false,0.0,4304.872, 4443.333, 4173.59, 4239.103, 4365.513
1722054288.2731,2024-07-26 21:24:48.273,14,false,0.0,4305.0, 4421.41, 4174.872, 4239.872, 4371.795
1722054288.2809,2024-07-26 21:24:48.280,15,false,0.0,4290.769, 4411.539, 4160.641, 4230.385, 4363.974
1722054288.2887,2024-07-26 21:24:48.288,16,false,0.0,4292.692, 4422.308, 4163.077, 4235.513, 4376.41
1722054288.2965,2024-07-26 21:24:48.296,17,false,0.0,4305.513, 4436.667, 4180.385, 4254.231, 4395.256
1722054288.3043,2024-07-26 21:24:48.304,18,false,0.0,4295.256, 4425.897, 4169.231, 4248.974, 4384.615
1722054288.3121,2024-07-26 21:24:48.312,19,false,0.0,4276.539, 4403.333, 4146.41, 4234.872, 4371.282
1722054288.3199,2024-07-26 21:24:48.319,20,false,0.0,4280.513, 4411.795, 4154.487, 4242.692, 4382.82
1722054288.3278,2024-07-26 21:24:48.327,21,false,0.0,4285.897, 4428.846, 4165.641, 4241.282, 4386.667
1722054288.3356,2024-07-26 21:24:48.335,22,false,0.0,4276.282, 4408.461, 4155.256, 4220.897, 4374.103
1722054288.3434,2024-07-26 21:24:48.343,23,false,0.0,4277.051, 4391.667, 4154.744, 4218.461, 4380.513
1722054288.3512,2024-07-26 21:24:48.351,24,false,0.0,4289.872, 4423.718, 4164.231, 4224.359, 4398.205
1722054288.359,2024-07-26 21:24:48.359,25,false,0.0,4289.744, 4455.513, 4160.128, 4215.256, 4393.461
1722054288.3668,2024-07-26 21:24:48.366,26,false,0.0,4277.692, 4440.385, 4154.872, 4212.308, 4378.461
1722054288.3746,2024-07-26 21:24:48.374,27,false,0.0,4269.615, 4407.18, 4152.436, 4218.205, 4376.539
1722054288.3824,2024-07-26 21:24:48.382,28,false,0.0,4268.077, 4395.0, 4139.231, 4213.205, 4375.256
1722054288.3903,2024-07-26 21:24:48.390,29,false,0.0,4262.692, 4403.333, 4131.026, 4207.308, 4360.256
1722054288.3981,2024-07-26 21:24:48.398,30,false,0.0,4247.308, 4406.795, 4136.282, 4211.41, 4344.359
1722054288.4059,2024-07-26 21:24:48.405,31,false,0.0,4238.59, 4398.333, 4136.795, 4214.359, 4343.974
1722054288.4137,2024-07-26 21:24:48.413,32,false,0.0,4250.513, 4401.667, 4137.436, 4212.949, 4355.513
1722054288.4215,2024-07-26 21:24:48.421,33,false,0.0,4265.385, 4419.231, 4151.41, 4213.59, 4366.539
1722054288.4293,2024-07-26 21:24:48.429,34,false,0.0,4268.718, 4420.513, 4159.615, 4215.513, 4371.667
1722054288.4371,2024-07-26 21:24:48.437,35,false,0.0,4264.615, 4402.051, 4144.744, 4213.205, 4368.59
1722054288.4449,2024-07-26 21:24:48.444,36,false,0.0,4253.59, 4393.846, 4124.231, 4205.769, 4359.487
1722054288.4528,2024-07-26 21:24:48.452,37,false,0.0,4247.949, 4401.667, 4121.667, 4202.82, 4358.461
1722054288.4606,2024-07-26 21:24:48.460,38,false,0.0,4259.231, 4400.256, 4133.846, 4204.744, 4365.641
1722054288.4684,2024-07-26 21:24:48.468,39,false,0.0,4262.18, 4386.282, 4140.513, 4196.667, 4359.103
1722054288.4762,2024-07-26 21:24:48.476,40,false,0.0,4247.308, 4386.923, 4139.487, 4184.615, 4338.333
1722054288.484,2024-07-26 21:24:48.484,41,false,0.0,4242.949, 4401.539, 4139.359, 4187.564, 4328.59
1722054288.4918,2024-07-26 21:24:48.491,42,false,0.0,4249.359, 4400.128, 4137.82, 4198.205, 4329.744
1722054288.4996,2024-07-26 21:24:48.499,43,false,0.0,4248.461, 4386.795, 4136.282, 4204.103, 4325.256
1722054288.5074,2024-07-26 21:24:48.507,44,false,0.0,4246.41, 4383.077, 4134.103, 4203.461, 4318.59
1722054288.5153,2024-07-26 21:24:48.515,45,false,0.0,4243.718, 4383.333, 4119.231, 4194.744, 4312.564
1722054288.5231,2024-07-26 21:24:48.523,46,false,0.0,4236.667, 4379.744, 4105.897, 4189.615, 4300.256
1722054288.5309,2024-07-26 21:24:48.530,47,false,0.0,4231.539, 4377.692, 4111.795, 4192.692, 4284.615
1722054288.5387,2024-07-26 21:24:48.538,48,false,0.0,4222.308, 4379.872, 4114.615, 4187.949, 4274.744
1722054288.5465,2024-07-26 21:24:48.546,49,false,0.0,4212.692, 4385.256, 4107.051, 4185.769, 4273.59
1722054288.5543,2024-07-26 21:24:48.554,50,false,0.0,4217.051, 4380.256, 4108.846, 4197.436, 4273.974
1722054288.5621,2024-07-26 21:24:48.562,51,false,0.0,4221.154, 4365.256, 4112.436, 4193.205, 4270.385
1722054288.5699,2024-07-26 21:24:48.569,52,false,0.0,4218.974, 4375.641, 4115.641, 4178.077, 4274.615
1722054288.5778,2024-07-26 21:24:48.577,53,false,0.0,4226.282, 4401.795, 4130.256, 4184.615, 4283.461
1722054288.5856,2024-07-26 21:24:48.585,54,false,0.0,4229.487, 4392.82, 4130.897, 4190.128, 4272.308
1722054288.5934,2024-07-26 21:24:48.593,55,false,0.0,4220.769, 4372.18, 4109.872, 4179.872, 4257.436
1722054288.6012,2024-07-26 21:24:48.601,56,false,0.0,4220.769, 4383.846, 4100.897, 4177.564, 4262.18
1722054288.609,2024-07-26 21:24:48.609,57,false,0.0,4223.077, 4390.0, 4102.564, 4173.846, 4257.82
1722054288.6168,2024-07-26 21:24:48.616,58,false,0.0,4217.82, 4370.897, 4100.513, 4166.41, 4240.641
1722054288.6246,2024-07-26 21:24:48.624,59,false,0.0,4215.513, 4361.41, 4099.359, 4176.282, 4240.769
1722054288.6324,2024-07-26 21:24:48.632,60,false,0.0,4208.846, 4358.59, 4088.461, 4181.539, 4239.615
1722054288.6403,2024-07-26 21:24:48.640,61,false,0.0,4200.128, 4357.564, 4076.154, 4169.487, 4222.436
1722054288.6481,2024-07-26 21:24:48.648,62,false,0.0,4202.949, 4367.436, 4083.077, 4165.897, 4215.128
1722054288.6559,2024-07-26 21:24:48.655,63,false,0.0,4197.692, 4356.026, 4082.949, 4163.59, 4210.0
1722054288.6637,2024-07-26 21:24:48.663,64,false,0.0,4185.897, 4332.949, 4070.897, 4161.026, 4197.564
1722054288.6715,2024-07-26 21:24:48.671,65,false,0.0,4197.436, 4354.103, 4081.282, 4178.461, 4202.692
1722054288.6793,2024-07-26 21:24:48.679,66,false,0.0,4214.487, 4380.128, 4097.051, 4190.513, 4215.513
1722054288.6871,2024-07-26 21:24:48.687,67,false,0.0,4214.231, 4359.872, 4094.103, 4181.41, 4212.051
1722054288.6949,2024-07-26 21:24:48.694,68,false,0.0,4212.308, 4346.923, 4092.949, 4181.923, 4207.18
1722054288.7028,2024-07-26 21:24:48.702,69,false,0.0,4212.436, 4356.923, 4088.974, 4188.205, 4208.718
1722054288.7106,2024-07-26 21:24:48.710,70,false,0.0,4212.436, 4345.385, 4075.128, 4181.795, 4208.077
1722054288.7184,2024-07-26 21:24:48.718,71,false,0.0,4217.949, 4342.18, 4078.846, 4177.82, 4206.667
1722054288.7262,2024-07-26 21:24:48.726,72,false,0.0,4218.333, 4370.513, 4096.026, 4182.949, 4201.795
1722054288.734,2024-07-26 21:24:48.734,73,false,0.0,4212.436, 4376.923, 4098.333, 4188.718, 4194.744
1722054288.7418,2024-07-26 21:24:48.741,74,false,0.0,4208.718, 4354.359, 4089.872, 4188.59, 4190.897
1722054288.7496,2024-07-26 21:24:48.749,75,false,0.0,4198.461, 4343.333, 4080.897, 4177.436, 4181.923
1722054288.7574,2024-07-26 21:24:48.757,76,false,0.0,4189.487, 4338.333, 4073.974, 4167.949, 4172.564
1722054288.7653,2024-07-26 21:24:48.765,77,false,0.0,4199.103, 4331.282, 4078.718, 4172.564, 4180.0
1722054288.7731,2024-07-26 21:24:48.773,78,false,0.0,4215.385, 4341.923, 4092.051, 4182.436, 4197.436
1722054288.7809,2024-07-26 21:24:48.780,79,false,0.0,4226.795, 4362.82, 4097.949, 4189.872, 4208.974
1722054288.7887,2024-07-26 21:24:48.788,80,false,0.0,4234.872, 4373.974, 4095.769, 4188.333, 4210.256
1722054288.7965,2024-07-26 21:24:48.796,81,false,0.0,4234.103, 4376.539, 4096.667, 4175.769, 4204.487
1722054288.8043,2024-07-26 21:24:48.804,82,false,0.0,4228.205, 4367.18, 4099.487, 4169.615, 4201.026
1722054288.8121,2024-07-26 21:24:48.812,83,false,0.0,4225.769, 4347.564, 4096.667, 4176.539, 4202.436
1722054288.8199,2024-07-26 21:24:48.819,84,false,0.0,4227.18, 4348.974, 4101.282, 4191.026, 4207.051
1722054288.8278,2024-07-26 21:24:48.827,85,false,0.0,4233.333, 4375.256, 4117.18, 4208.333, 4213.846
1722054288.8356,2024-07-26 21:24:48.835,86,false,0.0,4228.846, 4379.744, 4111.154, 4203.077, 4206.282
1722054288.8434,2024-07-26 21:24:48.843,87,false,0.0,4209.872, 4353.461, 4084.103, 4175.0, 4181.795
1722054288.8512,2024-07-26 21:24:48.851,88,false,0.0,4206.667, 4338.077, 4079.359, 4165.256, 4174.487
1722054288.859,2024-07-26 21:24:48.859,89,false,0.0,4215.0, 4341.923, 4085.641, 4168.461, 4185.513
1722054288.8668,2024-07-26 21:24:48.866,90,false,0.0,4206.539, 4350.513, 4075.769, 4159.744, 4185.385
1722054288.8746,2024-07-26 21:24:48.874,91,false,0.0,4204.615, 4363.59, 4079.231, 4165.769, 4184.359
1722054288.8824,2024-07-26 21:24:48.882,92,false,0.0,4214.615, 4362.82, 4091.282, 4180.897, 4187.692
1722054288.8903,2024-07-26 21:24:48.890,93,false,0.0,4198.59, 4345.769, 4072.308, 4165.769, 4171.41
1722054288.8981,2024-07-26 21:24:48.898,94,false,0.0,4181.282, 4353.974, 4058.974, 4150.897, 4158.846
1722054288.9059,2024-07-26 21:24:48.905,95,false,0.0,4198.718, 4378.333, 4083.461, 4166.667, 4173.718
1722054288.9137,2024-07-26 21:24:48.913,96,false,0.0,4210.385, 4369.103, 4095.513, 4174.872, 4180.769
1722054288.9215,2024-07-26 21:24:48.921,97,false,0.0,4198.718, 4342.308, 4079.487, 4165.769, 4172.308
1722054288.9293,2024-07-26 21:24:48.929,98,false,0.0,4194.872, 4329.615, 4067.821, 4164.231, 4172.051
1722054288.9371,2024-07-26 21:24:48.937,99,false,0.0,4198.077, 4331.539, 4058.846, 4165.897, 4170.641
1722054288.9449,2024-07-26 21:24:48.944,100,false,0.0,4205.256, 4360.897, 4056.923, 4167.308, 4170.128
1722054288.9528,2024-07-26 21:24:48.952,101,false,0.0,4217.692, 4386.795, 4072.179, 4167.564, 4181.795
1722054288.9606,2024-07-26 21:24:48.960,102,false,0.0,4211.795, 4355.385, 4076.154, 4159.231, 4182.18
1722054288.9684,2024-07-26 21:24:48.968,103,false,0.0,4202.051, 4323.974, 4069.103, 4162.18, 4177.82
1722054288.9762,2024-07-26 21:24:48.976,104,false,0.0,4215.128, 4347.82, 4077.308, 4177.949, 4190.0
1722054288.984,2024-07-26 21:24:48.984,105,false,0.0,4216.795, 4355.513, 4079.359, 4168.333, 4190.513
1722054288.9918,2024-07-26 21:24:48.991,106,false,0.0,4200.128, 4323.333, 4067.564, 4147.308, 4177.308
1722054288.9996,2024-07-26 21:24:48.999,107,false,0.0,4206.41, 4317.949, 4072.692, 4155.256, 4183.461
1722054289.0074,2024-07-26 21:24:49.007,108,false,0.0,4223.718, 4335.897, 4088.846, 4170.256, 4194.487
1722054289.0153,2024-07-26 21:24:49.015,109,false,0.0,4223.846, 4337.82, 4095.385, 4168.718, 4193.077
1722054289.0231,2024-07-26 21:24:49.023,110,false,0.0,4216.923, 4335.641, 4091.795, 4163.077, 4189.231
1722054289.0309,2024-07-26 21:24:49.030,111,false,0.0,4206.667, 4337.692, 4078.205, 4158.461, 4178.461
1722054289.0387,2024-07-26 21:24:49.038,112,false,0.0,4203.205, 4336.667, 4072.692, 4163.077, 4175.256
1722054289.0465,2024-07-26 21:24:49.046,113,false,0.0,4220.385, 4336.923, 4083.974, 4178.205, 4193.59
1722054289.0543,2024-07-26 21:24:49.054,114,false,0.0,4228.077, 4346.026, 4083.461, 4174.872, 4199.103
1722054289.0621,2024-07-26 21:24:49.062,115,false,0.0,4212.692, 4363.333, 4075.897, 4156.539, 4188.205
1722054289.0699,2024-07-26 21:24:49.069,116,false,0.0,4208.59, 4362.308, 4086.41, 4158.333, 4192.308
1722054289.0778,2024-07-26 21:24:49.077,117,false,0.0,4219.615, 4333.205, 4090.897, 4170.385, 4195.513
1722054289.0856,2024-07-26 21:24:49.085,118,false,0.0,4219.487, 4325.256, 4076.667, 4168.846, 4181.667
1722054289.0934,2024-07-26 21:24:49.093,119,false,0.0,4208.077, 4346.539, 4071.539, 4163.59, 4171.795
1722054289.1012,2024-07-26 21:24:49.101,120,false,0.0,4204.359, 4349.615, 4081.282, 4166.795, 4176.026
1722054289.109,2024-07-26 21:24:49.109,121,false,0.0,4214.103, 4343.718, 4090.897, 4172.564, 4187.18
1722054289.1168,2024-07-26 21:24:49.116,122,false,0.0,4217.82, 4351.667, 4090.769, 4172.051, 4185.897
1722054289.1246,2024-07-26 21:24:49.124,123,false,0.0,4207.564, 4353.077, 4084.872, 4167.692, 4168.461
1722054289.1324,2024-07-26 21:24:49.132,124,false,0.0,4210.0, 4355.0, 4093.846, 4174.359, 4171.923
1722054289.1403,2024-07-26 21:24:49.140,125,false,0.0,4223.461, 4368.333, 4110.256, 4186.41, 4194.872
1722054289.1481,2024-07-26 21:24:49.148,126,false,0.0,4218.718, 4363.077, 4103.333, 4183.974, 4191.923
1722054289.1559,2024-07-26 21:24:49.155,127,false,0.0,4209.615, 4335.641, 4084.231, 4176.539, 4177.564
1722054289.1637,2024-07-26 21:24:49.163,0,false,0.0,4215.128, 4315.385, 4076.667, 4177.692, 4180.769
1722054289.1715,2024-07-26 21:24:49.171,1,false,0.0,4215.385, 4324.231, 4075.641, 4176.795, 4179.615
1722054289.1793,2024-07-26 21:24:49.179,2,false,0.0,4210.128, 4363.461, 4081.539, 4173.461, 4173.59
1722054289.1871,2024-07-26 21:24:49.187,3,false,0.0,4211.154, 4378.846, 4088.718, 4170.256, 4175.897
1722054289.1949,2024-07-26 21:24:49.194,4,false,0.0,4201.795, 4335.769, 4077.821, 4156.795, 4167.308
1722054289.2028,2024-07-26 21:24:49.202,5,false,0.0,4188.333, 4308.974, 4067.308, 4149.872, 4157.436
1722054289.2106,2024-07-26 21:24:49.210,6,false,0.0,4200.128, 4338.59, 4083.974, 4166.795, 4172.051
1722054289.2184,2024-07-26 21:24:49.218,7,false,0.0,4217.692, 4349.103, 4098.333, 4173.974, 4183.974
1722054289.2262,2024-07-26 21:24:49.226,8,false,0.0,4204.872, 4322.564, 4079.744, 4151.667, 4166.154
1722054289.234,2024-07-26 21:24:49.234,9,false,0.0,4184.487, 4319.615, 4059.487, 4138.718, 4147.18
1722054289.2418,2024-07-26 21:24:49.241,10,false,0.0,4192.051, 4332.692, 4070.256, 4154.615, 4157.18
1722054289.2496,2024-07-26 21:24:49.249,11,false,0.0,4208.974, 4330.385, 4082.821, 4169.359, 4177.051
1722054289.2574,2024-07-26 21:24:49.257,12,false,0.0,4205.897, 4336.41, 4070.385, 4168.205, 4173.461
1722054289.2653,2024-07-26 21:24:49.265,13,false,0.0,4201.795, 4353.461, 4063.846, 4169.615, 4157.82
1722054289.2731,2024-07-26 21:24:49.273,14,false,0.0,4213.59, 4354.103, 4079.359, 4178.974, 4158.846
1722054289.2809,2024-07-26 21:24:49.280,15,false,0.0,4216.154, 4345.385, 4085.513, 4176.667, 4163.846
1722054289.2887,2024-07-26 21:24:49.288,16,false,0.0,4201.923, 4341.282, 4079.103, 4163.077, 4159.872
1722054289.2965,2024-07-26 21:24:49.296,17,false,0.0,4196.667, 4336.41, 4078.461, 4158.333, 4157.949
1722054289.3043,2024-07-26 21:24:49.304,18,false,0.0,4197.949, 4332.18, 4069.487, 4155.256, 4150.385
1722054289.3121,2024-07-26 21:24:49.312,19,false,0.0,4193.461, 4334.872, 4057.564, 4146.795, 4141.154
1722054289.3199,2024-07-26 21:24:49.319,20,false,0.0,4202.436, 4346.41, 4075.641, 4158.205, 4158.974
1722054289.3278,2024-07-26 21:24:49.327,21,false,0.0,4217.436, 4358.333, 4100.641, 4177.436, 4178.333
1722054289.3356,2024-07-26 21:24:49.335,22,false,0.0,4201.923, 4352.82, 4085.513, 4165.897, 4161.282
1722054289.3434,2024-07-26 21:24:49.343,23,false,0.0,4181.154, 4338.59, 4056.667, 4151.539, 4146.667
1722054289.3512,2024-07-26 21:24:49.351,24,false,0.0,4195.769, 4337.82, 4057.821, 4163.333, 4162.564
1722054289.359,2024-07-26 21:24:49.359,25,false,0.0,4210.385, 4342.82, 4066.923, 4162.051, 4167.436
1722054289.3668,2024-07-26 21:24:49.366,26,false,0.0,4199.359, 4349.487, 4063.59, 4146.41, 4152.051
1722054289.3746,2024-07-26 21:24:49.374,27,false,0.0,4197.692, 4359.103, 4071.026, 4154.744, 4151.795
1722054289.3824,2024-07-26 21:24:49.382,28,false,0.0,4201.41, 4347.436, 4079.872, 4163.333, 4158.59
1722054289.3903,2024-07-26 21:24:49.390,29,false,0.0,4185.641, 4326.026, 4062.949, 4148.461, 4146.154
1722054289.3981,2024-07-26 21:24:49.398,30,false,0.0,4179.359, 4333.205, 4051.282, 4146.667, 4135.0
1722054289.4059,2024-07-26 21:24:49.405,31,false,0.0,4195.641, 4344.487, 4064.103, 4162.564, 4147.436
1722054289.4137,2024-07-26 21:24:49.413,32,false,0.0,4199.872, 4335.385, 4062.949, 4158.718, 4156.923
1722054289.4215,2024-07-26 21:24:49.421,33,false,0.0,4188.974, 4332.692, 4046.667, 4140.769, 4142.949
1722054289.4293,2024-07-26 21:24:49.429,34,false,0.0,4182.949, 4333.077, 4045.513, 4136.923, 4130.385
1722054289.4371,2024-07-26 21:24:49.437,35,false,0.0,4177.436, 4322.308, 4042.179, 4139.359, 4130.256
1722054289.4449,2024-07-26 21:24:49.444,36,false,0.0,4169.872, 4320.128, 4028.59, 4131.923, 4125.897
1722054289.4528,2024-07-26 21:24:49.452,37,false,0.0,4173.461, 4324.359, 4035.897, 4132.692, 4128.846
1722054289.4606,2024-07-26 21:24:49.460,38,false,0.0,4192.564, 4326.41, 4057.564, 4152.308, 4150.641
1722054289.4684,2024-07-26 21:24:49.468,39,false,0.0,4208.461, 4332.308, 4062.051, 4156.41, 4158.205
1722054289.4762,2024-07-26 21:24:49.476,40,false,0.0,4202.564, 4329.103, 4056.154, 4136.539, 4142.18
1722054289.484,2024-07-26 21:24:49.484,41,false,0.0,4194.615, 4327.692, 4059.231, 4133.718, 4141.41
1722054289.4918,2024-07-26 21:24:49.491,42,false,0.0,4206.539, 4347.051, 4070.385, 4147.82, 4159.231
1722054289.4996,2024-07-26 21:24:49.499,43,false,0.0,4214.103, 4349.872, 4077.436, 4150.641, 4166.41
1722054289.5074,2024-07-26 21:24:49.507,44,false,0.0,4206.923, 4336.795, 4074.872, 4157.82, 4166.026
1722054289.5153,2024-07-26 21:24:49.515,45,false,0.0,4209.359, 4354.103, 4072.051, 4170.0, 4166.41
1722054289.5231,2024-07-26 21:24:49.523,46,false,0.0,4211.539, 4361.026, 4070.641, 4157.692, 4156.41
1722054289.5309,2024-07-26 21:24:49.530,47,false,0.0,4200.256, 4326.41, 4059.359, 4140.256, 4146.154
1722054289.5387,2024-07-26 21:24:49.538,48,false,0.0,4202.82, 4316.667, 4050.513, 4144.487, 4158.077
1722054289.5465,2024-07-26 21:24:49.546,49,false,0.0,4217.564, 4339.103, 4063.077, 4151.154, 4181.026
1722054289.5543,2024-07-26 21:24:49.554,50,false,0.0,4219.359, 4342.308, 4078.205, 4156.539, 4190.128
1722054289.5621,2024-07-26 21:24:49.562,51,false,0.0,4217.051, 4343.846, 4073.59, 4164.744, 4180.769
1722054289.5699,2024-07-26 21:24:49.569,52,false,0.0,4211.41, 4348.205, 4060.128, 4151.282, 4161.795
1722054289.5778,2024-07-26 21:24:49.577,53,false,0.0,4193.59, 4325.897, 4053.333, 4128.59, 4150.769
1722054289.5856,2024-07-26 21:24:49.585,54,false,0.0,4191.667, 4311.923, 4059.231, 4137.949, 4163.077
1722054289.5934,2024-07-26 21:24:49.593,55,false,0.0,4211.41, 4330.897, 4077.564, 4164.872, 4185.513
1722054289.6012,2024-07-26 21:24:49.601,56,false,0.0,4220.128, 4342.564, 4090.897, 4178.461, 4193.205
1722054289.609,2024-07-26 21:24:49.609,57,false,0.0,4219.872, 4339.231, 4089.615, 4182.82, 4191.667
1722054289.6168,2024-07-26 21:24:49.616,58,false,0.0,4220.0, 4335.769, 4084.231, 4172.436, 4190.0
1722054289.6246,2024-07-26 21:24:49.624,59,false,0.0,4203.461, 4326.795, 4073.718, 4144.615, 4177.18
1722054289.6324,2024-07-26 21:24:49.632,60,false,0.0,4190.128, 4330.0, 4059.231, 4133.59, 4166.667
1722054289.6403,2024-07-26 21:24:49.640,61,false,0.0,4205.256, 4347.692, 4058.718, 4146.41, 4180.897
1722054289.6481,2024-07-26 21:24:49.648,62,false,0.0,4212.18, 4343.718, 4062.179, 4149.231, 4190.769
1722054289.6559,2024-07-26 21:24:49.655,63,false,0.0,4195.513, 4332.692, 4054.872, 4142.436, 4172.692
1722054289.6637,2024-07-26 21:24:49.663,64,false,0.0,4194.359, 4346.282, 4062.179, 4148.461, 4162.051
1722054289.6715,2024-07-26 21:24:49.671,65,false,0.0,4201.923, 4349.615, 4080.256, 4154.103, 4170.385
1722054289.6793,2024-07-26 21:24:49.679,66,false,0.0,4187.82, 4324.103, 4072.821, 4149.744, 4170.256
1722054289.6871,2024-07-26 21:24:49.687,67,false,0.0,4180.897, 4312.18, 4061.539, 4156.154, 4168.59
1722054289.6949,2024-07-26 21:24:49.694,68,false,0.0,4201.026, 4323.718, 4075.0, 4170.897, 4175.641
1722054289.7028,2024-07-26 21:24:49.702,69,false,0.0,4211.923, 4330.385, 4082.692, 4168.461, 4175.0
1722054289.7106,2024-07-26 21:24:49.710,70,false,0.0,4203.461, 4334.231, 4076.282, 4154.744, 4174.744
1722054289.7184,2024-07-26 21:24:49.718,71,false,0.0,4201.026, 4343.077, 4077.179, 4148.59, 4181.539
1722054289.7262,2024-07-26 21:24:49.726,72,false,0.0,4201.026, 4335.385, 4071.923, 4142.949, 4171.539
1722054289.734,2024-07-26 21:24:49.734,73,false,0.0,4190.385, 4312.308, 4054.359, 4134.359, 4153.333
1722054289.7418,2024-07-26 21:24:49.741,74,false,0.0,4181.667, 4311.41, 4044.744, 4133.461, 4152.308
1722054289.7496,2024-07-26 21:24:49.749,75,false,0.0,4181.667, 4326.282, 4043.077, 4135.385, 4154.359
1722054289.7574,2024-07-26 21:24:49.757,76,false,0.0,4183.846, 4314.872, 4045.385, 4138.077, 4155.0
1722054289.7653,2024-07-26 21:24:49.765,77,false,0.0,4192.436, 4300.128, 4056.026, 4152.949, 4171.026
1722054289.7731,2024-07-26 21:24:49.773,78,false,0.0,4206.154, 4318.205, 4066.154, 4165.897, 4186.154
1722054289.7809,2024-07-26 21:24:49.780,79,false,0.0,4211.154, 4330.256, 4071.539, 4160.769, 4183.846
1722054289.7887,2024-07-26 21:24:49.788,80,false,0.0,4211.026, 4322.051, 4078.077, 4157.692, 4180.641
1722054289.7965,2024-07-26 21:24:49.796,81,false,0.0,4215.897, 4335.0, 4082.821, 4163.333, 4182.949
1722054289.8043,2024-07-26 21:24:49.804,82,false,0.0,4213.718, 4346.154, 4081.154, 4156.026, 4182.18
1722054289.8121,2024-07-26 21:24:49.812,83,false,0.0,4199.872, 4316.282, 4068.846, 4140.513, 4175.128
1722054289.8199,2024-07-26 21:24:49.819,84,false,0.0,4190.128, 4291.539, 4053.205, 4134.872, 4160.385
1722054289.8278,2024-07-26 21:24:49.827,85,false,0.0,4190.513, 4305.897, 4055.769, 4139.744, 4152.051
1722054289.8356,2024-07-26 21:24:49.835,86,false,0.0,4197.692, 4329.487, 4070.897, 4150.641, 4162.051
1722054289.8434,2024-07-26 21:24:49.843,87,false,0.0,4208.718, 4344.231, 4074.103, 4155.641, 4172.82
1722054289.8512,2024-07-26 21:24:49.851,88,false,0.0,4209.744, 4341.539, 4069.872, 4147.051, 4175.641
1722054289.859,2024-07-26 21:24:49.859,89,false,0.0,4201.923, 4320.385, 4064.744, 4141.154, 4182.308
1722054289.8668,2024-07-26 21:24:49.866,90,false,0.0,4205.641, 4317.051, 4058.461, 4145.0, 4186.026
1722054289.8746,2024-07-26 21:24:49.874,91,false,0.0,4216.154, 4340.769, 4065.897, 4148.846, 4184.103
1722054289.8824,2024-07-26 21:24:49.882,92,false,0.0,4217.308, 4347.82, 4077.692, 4155.641, 4191.923
1722054289.8903,2024-07-26 21:24:49.890,93,false,0.0,4220.641, 4335.128, 4073.461, 4166.667, 4203.718
1722054289.8981,2024-07-26 21:24:49.898,94,false,0.0,4230.256, 4338.077, 4072.436, 4171.795, 4204.615
1722054289.9059,2024-07-26 21:24:49.905,95,false,0.0,4220.641, 4342.949, 4075.0, 4161.667, 4193.077
1722054289.9137,2024-07-26 21:24:49.913,96,false,0.0,4196.41, 4330.0, 4059.744, 4140.897, 4175.641
1722054289.9215,2024-07-26 21:24:49.921,97,false,0.0,4196.795, 4332.949, 4056.539, 4139.103, 4176.026
1722054289.9293,2024-07-26 21:24:49.929,98,false,0.0,4215.641, 4345.128, 4072.308, 4158.59, 4195.641
1722054289.9371,2024-07-26 21:24:49.937,99,false,0.0,4216.41, 4323.846, 4064.487, 4156.41, 4199.231
1722054289.9449,2024-07-26 21:24:49.944,100,false,0.0,4215.769, 4320.769, 4058.333, 4144.103, 4198.205
1722054289.9528,2024-07-26 21:24:49.952,101,false,0.0,4228.59, 4369.615, 4079.615, 4161.026, 4217.949
1722054289.9606,2024-07-26 21:24:49.960,102,false,0.0,4220.256, 4370.385, 4072.692, 4171.41, 4219.872
1722054289.9684,2024-07-26 21:24:49.968,103,false,0.0,4206.923, 4320.256, 4051.667, 4161.923, 4204.487
1722054289.9762,2024-07-26 21:24:49.976,104,false,0.0,4228.461, 4331.539, 4075.128, 4174.487, 4217.564
1722054289.984,2024-07-26 21:24:49.984,105,false,0.0,4236.667, 4359.615, 4086.282, 4177.692, 4225.128
1722054289.9918,2024-07-26 21:24:49.991,106,false,0.0,4209.359, 4329.744, 4054.103, 4148.718, 4203.077
1722054289.9996,2024-07-26 21:24:49.999,107,false,0.0,4212.564, 4323.846, 4053.205, 4153.333, 4206.41
1722054290.0074,2024-07-26 21:24:50.007,108,false,0.0,4233.333, 4350.897, 4073.077, 4176.41, 4220.769
1722054290.0153,2024-07-26 21:24:50.015,109,false,0.0,4215.128, 4332.949, 4061.41, 4156.282, 4201.026
1722054290.0231,2024-07-26 21:24:50.023,110,false,0.0,4200.897, 4318.333, 4062.051, 4143.333, 4191.41
1722054290.0309,2024-07-26 21:24:50.030,111,false,0.0,4213.846, 4342.18, 4080.897, 4163.333, 4204.359
1722054290.0387,2024-07-26 21:24:50.038,112,false,0.0,4209.744, 4336.667, 4068.718, 4157.436, 4196.923
1722054290.0465,2024-07-26 21:24:50.046,113,false,0.0,4209.487, 4320.385, 4064.231, 4146.923, 4195.513
1722054290.0543,2024-07-26 21:24:50.054,114,false,0.0,4238.333, 4348.59, 4096.795, 4168.718, 4221.282
1722054290.0621,2024-07-26 21:24:50.062,115,false,0.0,4247.564, 4372.692, 4106.795, 4173.205, 4229.615
1722054290.0699,2024-07-26 21:24:50.069,116,false,0.0,4231.41, 4355.897, 4088.718, 4156.282, 4219.872
1722054290.0778,2024-07-26 21:24:50.077,117,false,0.0,4229.359, 4337.051, 4084.487, 4160.256, 4217.051
1722054290.0856,2024-07-26 21:24:50.085,118,false,0.0,4229.103, 4337.308, 4082.564, 4163.205, 4206.795
1722054290.0934,2024-07-26 21:24:50.093,119,false,0.0,4220.513, 4337.692, 4079.231, 4153.59, 4198.077
1722054290.1012,2024-07-26 21:24:50.101,120,false,0.0,4226.282, 4327.564, 4092.949, 4162.18, 4211.282
1722054290.109,2024-07-26 21:24:50.109,121,false,0.0,4234.231, 4331.282, 4098.461, 4174.487, 4216.795
1722054290.1168,2024-07-26 21:24:50.116,122,false,0.0,4228.333, 4362.82, 4087.436, 4175.769, 4201.795
1722054290.1246,2024-07-26 21:24:50.124,123,false,0.0,4228.59, 4379.487, 4093.077, 4188.718, 4198.718
1722054290.1324,2024-07-26 21:24:50.132,124,false,0.0,4230.256, 4354.487, 4099.103, 4196.026, 4207.436
1722054290.1403,2024-07-26 21:24:50.140,125,false,0.0,4213.461, 4330.641, 4077.051, 4177.436, 4201.154
1722054290.1481,2024-07-26 21:24:50.148,126,false,0.0,4202.82, 4332.051, 4065.641, 4171.539, 4189.487
1722054290.1559,2024-07-26 21:24:50.155,127,false,0.0,4211.795, 4335.769, 4084.103, 4185.385, 4191.154
1722054290.1637,2024-07-26 21:24:50.163,0,false,0.0,4210.513, 4338.846, 4091.667, 4181.667, 4197.82
1722054290.1715,2024-07-26 21:24:50.171,1,false,0.0,4201.539, 4350.256, 4086.41, 4175.0, 4202.949
1722054290.1793,2024-07-26 21:24:50.179,2,false,0.0,4210.0, 4351.539, 4091.154, 4187.564, 4208.205
1722054290.1871,2024-07-26 21:24:50.187,3,false,0.0,4216.795, 4333.461, 4085.128, 4187.692, 4202.949
1722054290.1949,2024-07-26 21:24:50.194,4,false,0.0,4214.872, 4332.051, 4071.539, 4175.256, 4194.487
1722054290.2028,2024-07-26 21:24:50.202,5,false,0.0,4230.897, 4365.0, 4088.846, 4187.18, 4210.385
1722054290.2106,2024-07-26 21:24:50.210,6,false,0.0,4244.231, 4375.513, 4109.615, 4201.923, 4232.692
1722054290.2184,2024-07-26 21:24:50.218,7,false,0.0,4225.385, 4335.513, 4093.077, 4188.461, 4220.513
1722054290.2262,2024-07-26 21:24:50.226,8,false,0.0,4207.692, 4316.026, 4077.821, 4176.795, 4193.205
1722054290.234,2024-07-26 21:24:50.234,9,false,0.0,4209.615, 4347.18, 4088.205, 4182.051, 4189.231
1722054290.2418,2024-07-26 21:24:50.241,10,false,0.0,4206.539, 4363.846, 4089.872, 4180.897, 4198.205
1722054290.2496,2024-07-26 21:24:50.249,11,false,0.0,4205.641, 4345.897, 4082.308, 4180.385, 4203.718
1722054290.2574,2024-07-26 21:24:50.257,12,false,0.0,4221.282, 4334.231, 4089.103, 4195.128, 4211.026
1722054290.2653,2024-07-26 21:24:50.265,13,false,0.0,4232.949, 4339.872, 4096.795, 4203.846, 4215.256
1722054290.2731,2024-07-26 21:24:50.273,14,false,0.0,4228.461, 4347.308, 4095.256, 4196.282, 4209.231
1722054290.2809,2024-07-26 21:24:50.280,15,false,0.0,4218.077, 4344.231, 4093.077, 4191.539, 4202.18
1722054290.2887,2024-07-26 21:24:50.288,16,false,0.0,4212.18, 4335.641, 4089.359, 4195.128, 4202.692
1722054290.2965,2024-07-26 21:24:50.296,17,false,0.0,4217.308, 4338.846, 4087.308, 4194.359, 4206.667
1722054290.3043,2024-07-26 21:24:50.304,18,false,0.0,4227.051, 4343.205, 4095.513, 4191.41, 4210.641
1722054290.3121,2024-07-26 21:24:50.312,19,false,0.0,4232.051, 4344.359, 4103.205, 4196.795, 4221.795
1722054290.3199,2024-07-26 21:24:50.319,20,false,0.0,4235.385, 4359.744, 4097.692, 4201.282, 4239.103
1722054290.3278,2024-07-26 21:24:50.327,21,false,0.0,4238.59, 4355.385, 4089.359, 4194.487, 4243.461
1722054290.3356,2024-07-26 21:24:50.335,22,false,0.0,4237.692, 4315.513, 4092.308, 4188.59, 4230.769
1722054290.3434,2024-07-26 21:24:50.343,23,false,0.0,4230.897, 4313.461, 4097.18, 4189.231, 4222.564
1722054290.3512,2024-07-26 21:24:50.351,24,false,0.0,4225.769, 4355.128, 4094.359, 4190.128, 4230.769
1722054290.359,2024-07-26 21:24:50.359,25,false,0.0,4232.82, 4363.846, 4092.949, 4197.564, 4241.154
1722054290.3668,2024-07-26 21:24:50.366,26,false,0.0,4239.231, 4348.205, 4092.949, 4203.333, 4234.744
1722054290.3746,2024-07-26 21:24:50.374,27,false,0.0,4231.667, 4346.795, 4091.154, 4191.026, 4219.103
1722054290.3824,2024-07-26 21:24:50.382,28,false,0.0,4230.641, 4338.718, 4098.333, 4182.436, 4219.359
1722054290.3903,2024-07-26 21:24:50.390,29,false,0.0,4238.59, 4328.718, 4102.692, 4187.949, 4228.718
1722054290.3981,2024-07-26 21:24:50.398,30,false,0.0,4235.897, 4341.282, 4091.795, 4183.205, 4228.333
1722054290.4059,2024-07-26 21:24:50.405,31,false,0.0,4236.154, 4354.872, 4093.461, 4174.872, 4229.744
1722054290.4137,2024-07-26 21:24:50.413,32,false,0.0,4244.231, 4350.769, 4106.41, 4177.949, 4235.769
1722054290.4215,2024-07-26 21:24:50.421,33,false,0.0,4240.769, 4343.077, 4098.59, 4178.974, 4235.513
1722054290.4293,2024-07-26 21:24:50.429,34,false,0.0,4237.051, 4345.128, 4088.846, 4182.051, 4236.539
1722054290.4371,2024-07-26 21:24:50.437,35,false,0.0,4240.0, 4352.82, 4095.769, 4192.436, 4235.256
1722054290.4449,2024-07-26 21:24:50.444,36,false,0.0,4238.461, 4355.897, 4102.564, 4193.461, 4232.949
1722054290.4528,2024-07-26 21:24:50.452,37,false,0.0,4248.077, 4356.41, 4115.256, 4194.615, 4251.282
1722054290.4606,2024-07-26 21:24:50.460,38,false,0.0,4258.59, 4360.128, 4126.282, 4201.154, 4262.051
1722054290.4684,2024-07-26 21:24:50.468,39,false,0.0,4239.487, 4360.385, 4110.513, 4190.641, 4237.949
1722054290.4762,2024-07-26 21:24:50.476,40,false,0.0,4221.154, 4352.564, 4096.795, 4176.154, 4225.385
1722054290.484,2024-07-26 21:24:50.484,41,false,0.0,4226.282, 4341.026, 4105.0, 4179.615, 4233.718
1722054290.4918,2024-07-26 21:24:50.491,42,false,0.0,4229.487, 4337.18, 4107.436, 4186.41, 4228.59
1722054290.4996,2024-07-26 21:24:50.499,43,false,0.0,4236.923, 4345.256, 4112.564, 4195.769, 4237.18
1722054290.5074,2024-07-26 21:24:50.507,44,false,0.0,4251.795, 4347.051, 4130.513, 4210.769, 4264.359
1722054290.5153,2024-07-26 21:24:50.515,45,false,0.0,4240.769, 4340.128, 4125.769, 4206.539, 4254.231
1722054290.5231,2024-07-26 21:24:50.523,46,false,0.0,4213.333, 4342.949, 4100.513, 4187.564, 4218.077
1722054290.5309,2024-07-26 21:24:50.530,47,false,0.0,4204.872, 4347.564, 4094.615, 4183.205, 4208.461
1722054290.5387,2024-07-26 21:24:50.538,48,false,0.0,4214.231, 4348.974, 4108.205, 4190.256, 4221.667
1722054290.5465,2024-07-26 21:24:50.546,49,false,0.0,4223.461, 4357.82, 4114.359, 4190.513, 4229.359
1722054290.5543,2024-07-26 21:24:50.554,50,false,0.0,4219.872, 4354.872, 4105.256, 4186.026, 4220.897
1722054290.5621,2024-07-26 21:24:50.562,51,false,0.0,4213.333, 4336.923, 4097.82, 4183.846, 4210.385
1722054290.5699,2024-07-26 21:24:50.569,52,false,0.0,4219.744, 4330.897, 4100.256, 4180.128, 4216.667
1722054290.5778,2024-07-26 21:24:50.577,53,false,0.0,4223.718, 4331.154, 4097.692, 4172.051, 4227.051
1722054290.5856,2024-07-26 21:24:50.585,54,false,0.0,4220.256, 4335.0, 4091.923, 4172.692, 4228.846
1722054290.5934,2024-07-26 21:24:50.593,55,false,0.0,4227.564, 4348.077, 4095.0, 4181.41, 4228.461
1722054290.6012,2024-07-26 21:24:50.601,56,false,0.0,4232.308, 4340.897, 4092.821, 4178.333, 4222.436
1722054290.609,2024-07-26 21:24:50.609,57,false,0.0,4222.308, 4323.59, 4081.282, 4169.103, 4217.308
1722054290.6168,2024-07-26 21:24:50.616,58,false,0.0,4214.231, 4329.359, 4074.744, 4166.282, 4220.0
1722054290.6246,2024-07-26 21:24:50.624,59,false,0.0,4207.436, 4327.308, 4067.821, 4159.359, 4209.231
1722054290.6324,2024-07-26 21:24:50.632,60,false,0.0,4198.461, 4315.513, 4061.026, 4149.872, 4190.769
1722054290.6403,2024-07-26 21:24:50.640,61,false,0.0,4194.487, 4330.897, 4062.692, 4144.615, 4188.205
1722054290.6481,2024-07-26 21:24:50.648,62,false,0.0,4189.231, 4336.795, 4062.564, 4140.128, 4192.051
1722054290.6559,2024-07-26 21:24:50.655,63,false,0.0,4190.897, 4318.846, 4063.333, 4146.026, 4199.359
1722054290.6637,2024-07-26 21:24:50.663,64,false,0.0,4205.513, 4328.077, 4071.539, 4157.692, 4214.231
1722054290.6715,2024-07-26 21:24:50.671,65,false,0.0,4209.231, 4344.359, 4075.0, 4156.923, 4217.564
1722054290.6793,2024-07-26 21:24:50.679,66,false,0.0,4201.282, 4331.795, 4076.795, 4162.308, 4216.923
1722054290.6871,2024-07-26 21:24:50.687,67,false,0.0,4196.41, 4318.077, 4075.897, 4170.641, 4222.564
1722054290.6949,2024-07-26 21:24:50.694,68,false,0.0,4184.231, 4305.769, 4056.282, 4149.487, 4212.436
1722054290.7028,2024-07-26 21:24:50.702,69,false,0.0,4178.718, 4295.0, 4048.205, 4134.615, 4201.923
1722054290.7106,2024-07-26 21:24:50.710,70,false,0.0,4197.692, 4315.769, 4076.282, 4158.205, 4220.256
1722054290.7184,2024-07-26 21:24:50.718,71,false,0.0,4211.026, 4338.974, 4093.205, 4168.718, 4238.205
1722054290.7262,2024-07-26 21:24:50.726,72,false,0.0,4205.769, 4332.051, 4076.667, 4154.615, 4234.872
1722054290.734,2024-07-26 21:24:50.734,73,false,0.0,4202.308, 4327.436, 4064.744, 4154.615, 4227.949
1722054290.7418,2024-07-26 21:24:50.741,74,false,0.0,4196.539, 4326.41, 4062.821, 4153.205, 4219.103
1722054290.7496,2024-07-26 21:24:50.749,75,false,0.0,4188.205, 4310.641, 4053.846, 4140.128, 4210.128
1722054290.7574,2024-07-26 21:24:50.757,76,false,0.0,4194.231, 4307.436, 4052.436, 4144.744, 4216.282
1722054290.7653,2024-07-26 21:24:50.765,77,false,0.0,4206.154, 4319.487, 4068.846, 4157.051, 4233.846
1722054290.7731,2024-07-26 21:24:50.773,78,false,0.0,4210.0, 4323.59, 4084.872, 4156.026, 4243.205
1722054290.7809,2024-07-26 21:24:50.780,79,false,0.0,4209.103, 4324.487, 4086.41, 4157.18, 4236.282
1722054290.7887,2024-07-26 21:24:50.788,80,false,0.0,4204.872, 4321.795, 4079.615, 4161.923, 4227.436
1722054290.7965,2024-07-26 21:24:50.796,81,false,0.0,4198.205, 4312.949, 4075.897, 4157.949, 4230.128
1722054290.8043,2024-07-26 21:24:50.804,82,false,0.0,4196.41, 4311.923, 4074.744, 4158.461, 4235.256
1722054290.8121,2024-07-26 21:24:50.812,83,false,0.0,4204.359, 4313.205, 4072.564, 4169.359, 4237.18
1722054290.8199,2024-07-26 21:24:50.819,84,false,0.0,4213.077, 4309.359, 4073.333, 4170.897, 4239.744
1722054290.8278,2024-07-26 21:24:50.827,85,false,0.0,4209.744, 4309.487, 4072.949, 4157.564, 4235.769
1722054290.8356,2024-07-26 21:24:50.835,86,false,0.0,4200.256, 4305.641, 4064.744, 4146.282, 4228.461
1722054290.8434,2024-07-26 21:24:50.843,87,false,0.0,4192.564, 4295.897, 4056.41, 4141.154, 4223.846
1722054290.8512,2024-07-26 21:24:50.851,88,false,0.0,4179.615, 4298.59, 4056.41, 4134.744, 4211.282
1722054290.859,2024-07-26 21:24:50.859,89,false,0.0,4174.231, 4310.0, 4066.667, 4137.692, 4206.41
1722054290.8668,2024-07-26 21:24:50.866,90,false,0.0,4190.0, 4309.872, 4082.436, 4156.026, 4228.846
1722054290.8746,2024-07-26 21:24:50.874,91,false,0.0,4197.18, 4293.59, 4087.308, 4169.103, 4242.949
1722054290.8824,2024-07-26 21:24:50.882,92,false,0.0,4186.282, 4282.18, 4075.513, 4169.359, 4228.461
1722054290.8903,2024-07-26 21:24:50.890,93,false,0.0,4188.461, 4300.256, 4066.154, 4167.308, 4220.897
1722054290.8981,2024-07-26 21:24:50.898,94,false,0.0,4196.282, 4321.795, 4066.667, 4161.154, 4225.513
1722054290.9059,2024-07-26 21:24:50.905,95,false,0.0,4187.308, 4308.077, 4064.615, 4150.256, 4218.846
1722054290.9137,2024-07-26 21:24:50.913,96,false,0.0,4180.256, 4290.897, 4060.0, 4143.974, 4209.615
1722054290.9215,2024-07-26 21:24:50.921,97,false,0.0,4187.308, 4306.667, 4061.923, 4146.282, 4213.461
1722054290.9293,2024-07-26 21:24:50.929,98,false,0.0,4194.744, 4319.359, 4068.205, 4154.487, 4221.795
1722054290.9371,2024-07-26 21:24:50.937,99,false,0.0,4196.154, 4303.974, 4066.667, 4153.205, 4220.641
1722054290.9449,2024-07-26 21:24:50.944,100,false,0.0,4192.051, 4295.385, 4059.103, 4139.487, 4215.385
1722054290.9528,2024-07-26 21:24:50.952,101,false,0.0,4193.461, 4307.692, 4061.667, 4141.667, 4225.256
1722054290.9606,2024-07-26 21:24:50.960,102,false,0.0,4209.231, 4317.18, 4075.385, 4158.974, 4239.359
1722054290.9684,2024-07-26 21:24:50.968,103,false,0.0,4223.461, 4329.103, 4086.795, 4160.897, 4235.0
1722054290.9762,2024-07-26 21:24:50.976,104,false,0.0,4225.769, 4347.692, 4093.205, 4158.077, 4232.564
1722054290.984,2024-07-26 21:24:50.984,105,false,0.0,4220.897, 4328.333, 4089.103, 4159.359, 4238.974
1722054290.9918,2024-07-26 21:24:50.991,106,false,0.0,4207.051, 4281.795, 4073.461, 4145.897, 4223.077
1722054290.9996,2024-07-26 21:24:50.999,107,false,0.0,4198.077, 4285.385, 4072.436, 4144.103, 4205.128
1722054291.0074,2024-07-26 21:24:51.007,108,false,0.0,4205.641, 4317.82, 4086.026, 4167.949, 4217.051
1722054291.0153,2024-07-26 21:24:51.015,109,false,0.0,4208.718, 4314.872, 4082.949, 4168.205, 4221.154
1722054291.0231,2024-07-26 21:24:51.023,110,false,0.0,4205.769, 4313.718, 4074.744, 4145.897, 4204.359
1722054291.0309,2024-07-26 21:24:51.030,111,false,0.0,4209.615, 4330.385, 4077.821, 4140.641, 4201.539
1722054291.0387,2024-07-26 21:24:51.038,112,false,0.0,4202.18, 4319.487, 4067.821, 4134.615, 4200.385
1722054291.0465,2024-07-26 21:24:51.046,113,false,0.0,4183.974, 4302.436, 4051.41, 4120.897, 4188.974
1722054291.0543,2024-07-26 21:24:51.054,114,false,0.0,4181.795, 4307.692, 4054.487, 4125.128, 4191.539
1722054291.0621,2024-07-26 21:24:51.062,115,false,0.0,4191.026, 4319.359, 4064.615, 4136.282, 4198.333
1722054291.0699,2024-07-26 21:24:51.069,116,false,0.0,4198.333, 4332.949, 4073.59, 4141.923, 4194.103
1722054291.0778,2024-07-26 21:24:51.077,117,false,0.0,4200.513, 4317.949, 4075.0, 4146.923, 4196.923
1722054291.0856,2024-07-26 21:24:51.085,118,false,0.0,4193.718, 4277.692, 4055.128, 4143.974, 4202.051
1722054291.0934,2024-07-26 21:24:51.093,119,false,0.0,4189.615, 4288.077, 4044.615, 4139.872, 4194.359
1722054291.1012,2024-07-26 21:24:51.101,120,false,0.0,4187.564, 4320.641, 4059.872, 4139.487, 4178.461
1722054291.109,2024-07-26 21:24:51.109,121,false,0.0,4172.436, 4308.077, 4063.974, 4130.385, 4162.564
1722054291.1168,2024-07-26 21:24:51.116,122,false,0.0,4168.333, 4309.615, 4061.026, 4130.385, 4164.744
1722054291.1246,2024-07-26 21:24:51.124,123,false,0.0,4182.436, 4332.564, 4068.59, 4144.359, 4181.539
1722054291.1324,2024-07-26 21:24:51.132,124,false,0.0,4178.333, 4312.308, 4058.205, 4138.846, 4176.795
1722054291.1403,2024-07-26 21:24:51.140,125,false,0.0,4170.128, 4298.461, 4040.128, 4123.718, 4160.256
1722054291.1481,2024-07-26 21:24:51.148,126,false,0.0,4182.308, 4315.128, 4046.795, 4125.128, 4164.231
1722054291.1559,2024-07-26 21:24:51.155,127,false,0.0,4183.974, 4300.0, 4058.718, 4129.231, 4173.333
1722054291.1637,2024-07-26 21:24:51.163,0,false,0.0,4180.0, 4290.128, 4066.667, 4137.436, 4185.385
1722054291.1715,2024-07-26 21:24:51.171,1,false,0.0,4198.205, 4317.436, 4081.026, 4158.461, 4212.564
1722054291.1793,2024-07-26 21:24:51.179,2,false,0.0,4206.539, 4314.872, 4083.333, 4169.231, 4221.667
1722054291.1871,2024-07-26 21:24:51.187,3,false,0.0,4194.359, 4297.436, 4078.333, 4165.256, 4205.513
1722054291.1949,2024-07-26 21:24:51.194,4,false,0.0,4193.205, 4317.692, 4083.974, 4159.103, 4200.385
1722054291.2028,2024-07-26 21:24:51.202,5,false,0.0,4190.128, 4326.026, 4081.026, 4147.18, 4200.385
1722054291.2106,2024-07-26 21:24:51.210,6,false,0.0,4178.333, 4298.974, 4067.179, 4138.333, 4191.41
1722054291.2184,2024-07-26 21:24:51.218,7,false,0.0,4183.333, 4290.769, 4063.077, 4137.436, 4188.974
1722054291.2262,2024-07-26 21:24:51.226,8,false,0.0,4185.769, 4307.692, 4058.846, 4126.41, 4185.385
1722054291.234,2024-07-26 21:24:51.234,9,false,0.0,4173.205, 4313.461, 4055.385, 4120.128, 4178.077
1722054291.2418,2024-07-26 21:24:51.241,10,false,0.0,4184.103, 4311.667, 4073.59, 4142.564, 4194.487
1722054291.2496,2024-07-26 21:24:51.249,11,false,0.0,4206.026, 4320.385, 4091.667, 4164.359, 4217.949
1722054291.2574,2024-07-26 21:24:51.257,12,false,0.0,4196.795, 4321.539, 4083.461, 4161.282, 4212.18
1722054291.2653,2024-07-26 21:24:51.265,13,false,0.0,4182.82, 4301.41, 4071.795, 4152.949, 4195.128
1722054291.2731,2024-07-26 21:24:51.273,14,false,0.0,4185.769, 4292.692, 4068.846, 4145.0, 4185.641
1722054291.2809,2024-07-26 21:24:51.280,15,false,0.0,4177.949, 4308.077, 4061.795, 4131.667, 4177.051
1722054291.2887,2024-07-26 21:24:51.288,16,false,0.0,4173.333, 4311.539, 4065.513, 4130.128, 4182.82
1722054291.2965,2024-07-26 21:24:51.296,17,false,0.0,4194.615, 4302.308, 4081.667, 4140.256, 4201.923
1722054291.3043,2024-07-26 21:24:51.304,18,false,0.0,4205.256, 4309.359, 4072.821, 4138.205, 4202.564
1722054291.3121,2024-07-26 21:24:51.312,19,false,0.0,4190.256, 4319.487, 4046.282, 4128.846, 4190.128
1722054291.3199,2024-07-26 21:24:51.319,20,false,0.0,4179.231, 4313.077, 4042.308, 4127.308, 4184.744
1722054291.3278,2024-07-26 21:24:51.327,21,false,0.0,4176.41, 4298.974, 4049.615, 4128.205, 4178.59
1722054291.3356,2024-07-26 21:24:51.335,22,false,0.0,4178.205, 4288.846, 4051.539, 4135.897, 4180.897
1722054291.3434,2024-07-26 21:24:51.343,23,false,0.0,4189.231, 4297.308, 4058.205, 4148.846, 4197.564
1722054291.3512,2024-07-26 21:24:51.351,24,false,0.0,4196.923, 4324.615, 4063.077, 4146.282, 4202.692
1722054291.359,2024-07-26 21:24:51.359,25,false,0.0,4200.128, 4335.769, 4066.282, 4139.744, 4204.487
1722054291.3668,2024-07-26 21:24:51.366,26,false,0.0,4203.718, 4318.333, 4075.256, 4146.539, 4217.692
1722054291.3746,2024-07-26 21:24:51.374,27,false,0.0,4193.974, 4305.385, 4071.539, 4145.0, 4213.718
1722054291.3824,2024-07-26 21:24:51.382,28,false,0.0,4186.667, 4310.128, 4064.872, 4139.615, 4205.641
1722054291.3903,2024-07-26 21:24:51.390,29,false,0.0,4198.846, 4309.231, 4076.795, 4150.897, 4225.256
1722054291.3981,2024-07-26 21:24:51.398,30,false,0.0,4196.154, 4298.333, 4078.333, 4150.0, 4233.461
1722054291.4059,2024-07-26 21:24:51.405,31,false,0.0,4178.846, 4297.564, 4068.333, 4134.872, 4218.333
1722054291.4137,2024-07-26 21:24:51.413,32,false,0.0,4187.564, 4301.539, 4079.487, 4143.718, 4222.564
1722054291.4215,2024-07-26 21:24:51.421,33,false,0.0,4200.513, 4298.846, 4085.385, 4154.103, 4231.41
1722054291.4293,2024-07-26 21:24:51.429,34,false,0.0,4192.692, 4317.564, 4074.103, 4141.154, 4225.128
1722054291.4371,2024-07-26 21:24:51.437,35,false,0.0,4195.897, 4352.308, 4080.769, 4138.333, 4233.333
1722054291.4449,2024-07-26 21:24:51.444,36,false,0.0,4204.615, 4337.308, 4082.051, 4140.769, 4242.82
1722054291.4528,2024-07-26 21:24:51.452,37,false,0.0,4194.487, 4291.154, 4059.231, 4128.461, 4231.154
1722054291.4606,2024-07-26 21:24:51.460,38,false,0.0,4195.513, 4300.897, 4063.333, 4134.359, 4231.282
1722054291.4684,2024-07-26 21:24:51.468,39,false,0.0,4210.128, 4334.872, 4086.923, 4151.154, 4244.359
1722054291.4762,2024-07-26 21:24:51.476,40,false,0.0,4200.0, 4323.333, 4082.821, 4139.231, 4239.744
1722054291.484,2024-07-26 21:24:51.484,41,false,0.0,4187.308, 4309.744, 4080.385, 4132.308, 4239.744
1722054291.4918,2024-07-26 21:24:51.491,42,false,0.0,4196.795, 4316.282, 4093.59, 4151.026, 4252.82
1722054291.4996,2024-07-26 21:24:51.499,43,false,0.0,4193.461, 4301.41, 4082.564, 4147.564, 4240.641
1722054291.5074,2024-07-26 21:24:51.507,44,false,0.0,4180.769, 4297.051, 4070.0, 4129.103, 4218.974
1722054291.5153,2024-07-26 21:24:51.515,45,false,0.0,4194.744, 4322.82, 4088.077, 4137.18, 4232.308
1722054291.5231,2024-07-26 21:24:51.523,46,false,0.0,4208.59, 4323.077, 4095.769, 4148.205, 4254.615
1722054291.5309,2024-07-26 21:24:51.530,47,false,0.0,4202.308, 4316.026, 4084.103, 4146.539, 4252.564
1722054291.5387,2024-07-26 21:24:51.538,48,false,0.0,4209.487, 4341.282, 4091.667, 4158.718, 4251.41
1722054291.5465,2024-07-26 21:24:51.546,49,false,0.0,4227.051, 4342.692, 4105.256, 4171.923, 4261.795
1722054291.5543,2024-07-26 21:24:51.554,50,false,0.0,4227.436, 4314.231, 4103.205, 4162.564, 4262.436
1722054291.5621,2024-07-26 21:24:51.562,51,false,0.0,4220.385, 4323.461, 4101.282, 4148.846, 4255.385
1722054291.5699,2024-07-26 21:24:51.569,52,false,0.0,4216.154, 4349.359, 4101.282, 4148.333, 4253.077
1722054291.5778,2024-07-26 21:24:51.577,53,false,0.0,4219.744, 4345.769, 4102.692, 4158.718, 4256.026
1722054291.5856,2024-07-26 21:24:51.585,54,false,0.0,4235.641, 4343.205, 4110.641, 4166.539, 4261.539
1722054291.5934,2024-07-26 21:24:51.593,55,false,0.0,4235.769, 4354.487, 4105.769, 4156.795, 4257.82
1722054291.6012,2024-07-26 21:24:51.601,56,false,0.0,4215.897, 4352.436, 4094.487, 4147.308, 4248.077
1722054291.609,2024-07-26 21:24:51.609,57,false,0.0,4217.308, 4344.872, 4104.615, 4159.231, 4252.692
1722054291.6168,2024-07-26 21:24:51.616,58,false,0.0,4230.128, 4351.154, 4110.769, 4171.154, 4261.026
1722054291.6246,2024-07-26 21:24:51.624,59,false,0.0,4224.487, 4360.0, 4097.436, 4172.692, 4255.256
1722054291.6324,2024-07-26 21:24:51.632,60,false,0.0,4221.282, 4353.461, 4096.667, 4173.974, 4249.744
1722054291.6403,2024-07-26 21:24:51.640,61,false,0.0,4221.539, 4332.564, 4097.308, 4160.897, 4245.128
1722054291.6481,2024-07-26 21:24:51.648,62,false,0.0,4207.18, 4319.487, 4080.641, 4142.18, 4233.205
1722054291.6559,2024-07-26 21:24:51.655,63,false,0.0,4204.872, 4333.846, 4080.641, 4150.641, 4234.359
1722054291.6637,2024-07-26 21:24:51.663,64,false,0.0,4219.231, 4359.487, 4096.667, 4165.256, 4246.41
1722054291.6715,2024-07-26 21:24:51.671,65,false,0.0,4216.539, 4362.18, 4095.256, 4158.333, 4242.051
1722054291.6793,2024-07-26 21:24:51.679,66,false,0.0,4205.641, 4344.103, 4086.795, 4152.82, 4229.744
1722054291.6871,2024-07-26 21:24:51.687,67,false,0.0,4206.795, 4334.231, 4080.128, 4154.615, 4226.539
1722054291.6949,2024-07-26 21:24:51.694,68,false,0.0,4205.641, 4329.872, 4067.564, 4146.154, 4224.487
1722054291.7028,2024-07-26 21:24:51.702,69,false,0.0,4200.897, 4317.308, 4066.923, 4144.744, 4227.308
1722054291.7106,2024-07-26 21:24:51.710,70,false,0.0,4208.461, 4320.769, 4076.282, 4163.974, 4241.026
1722054291.7184,2024-07-26 21:24:51.718,71,false,0.0,4223.205, 4345.513, 4071.923, 4177.18, 4250.897
1722054291.7262,2024-07-26 21:24:51.726,72,false,0.0,4228.333, 4351.667, 4065.897, 4169.615, 4248.077
1722054291.734,2024-07-26 21:24:51.734,73,false,0.0,4220.385, 4342.436, 4072.308, 4161.539, 4241.154
1722054291.7418,2024-07-26 21:24:51.741,74,false,0.0,4213.59, 4349.103, 4079.103, 4165.769, 4239.231
1722054291.7496,2024-07-26 21:24:51.749,75,false,0.0,4218.077, 4354.744, 4085.256, 4172.436, 4243.974
1722054291.7574,2024-07-26 21:24:51.757,76,false,0.0,4228.846, 4351.795, 4093.846, 4175.641, 4249.359
1722054291.7653,2024-07-26 21:24:51.765,77,false,0.0,4241.539, 4362.051, 4099.615, 4179.615, 4253.59
1722054291.7731,2024-07-26 21:24:51.773,78,false,0.0,4249.359, 4367.82, 4101.923, 4180.641, 4259.744
1722054291.7809,2024-07-26 21:24:51.780,79,false,0.0,4243.974, 4355.0, 4097.436, 4176.795, 4261.41
1722054291.7887,2024-07-26 21:24:51.788,80,false,0.0,4235.128, 4349.103, 4087.692, 4177.82, 4252.308
1722054291.7965,2024-07-26 21:24:51.796,81,false,0.0,4231.154, 4346.795, 4082.179, 4177.949, 4239.231
1722054291.8043,2024-07-26 21:24:51.804,82,false,0.0,4226.41, 4336.667, 4080.256, 4168.59, 4234.615
1722054291.8121,2024-07-26 21:24:51.812,83,false,0.0,4228.461, 4340.897, 4081.41, 4168.974, 4244.359
1722054291.8199,2024-07-26 21:24:51.819,84,false,0.0,4238.333, 4351.795, 4088.461, 4183.077, 4255.0
1722054291.8278,2024-07-26 21:24:51.827,85,false,0.0,4236.154, 4342.692, 4089.487, 4182.18, 4249.615
1722054291.8356,2024-07-26 21:24:51.835,86,false,0.0,4226.026, 4334.615, 4084.359, 4167.82, 4240.513
1722054291.8434,2024-07-26 21:24:51.843,87,false,0.0,4226.41, 4345.641, 4089.615, 4165.0, 4244.103
1722054291.8512,2024-07-26 21:24:51.851,88,false,0.0,4227.564, 4353.333, 4096.026, 4168.205, 4247.308
1722054291.859,2024-07-26 21:24:51.859,89,false,0.0,4223.718, 4350.256, 4090.897, 4165.897, 4243.461
1722054291.8668,2024-07-26 21:24:51.866,90,false,0.0,4228.59, 4349.744, 4091.539, 4163.461, 4247.051
1722054291.8746,2024-07-26 21:24:51.874,91,false,0.0,4238.077, 4349.744, 4104.103, 4162.436, 4258.077
1722054291.8824,2024-07-26 21:24:51.882,92,false,0.0,4240.128, 4347.18, 4111.539, 4168.333, 4262.18
1722054291.8903,2024-07-26 21:24:51.890,93,false,0.0,4239.615, 4345.769, 4110.256, 4182.436, 4256.154
1722054291.8981,2024-07-26 21:24:51.898,94,false,0.0,4239.872, 4344.359, 4109.744, 4183.077, 4248.718
1722054291.9059,2024-07-26 21:24:51.905,95,false,0.0,4238.333, 4349.615, 4112.18, 4170.769, 4251.154
1722054291.9137,2024-07-26 21:24:51.913,96,false,0.0,4235.897, 4362.051, 4112.82, 4171.795, 4260.0
1722054291.9215,2024-07-26 21:24:51.921,97,false,0.0,4232.692, 4357.308, 4107.82, 4177.051, 4258.077
1722054291.9293,2024-07-26 21:24:51.929,98,false,0.0,4232.051, 4342.564, 4105.256, 4171.154, 4248.461
1722054291.9371,2024-07-26 21:24:51.937,99,false,0.0,4241.282, 4356.41, 4114.103, 4172.564, 4252.82
1722054291.9449,2024-07-26 21:24:51.944,100,false,0.0,4249.615, 4374.359, 4122.564, 4178.077, 4265.513
1722054291.9528,2024-07-26 21:24:51.952,101,false,0.0,4244.359, 4352.436, 4119.744, 4170.128, 4266.667
1722054291.9606,2024-07-26 21:24:51.960,102,false,0.0,4241.154, 4334.615, 4118.461, 4171.282, 4267.436
1722054291.9684,2024-07-26 21:24:51.968,103,false,0.0,4250.128, 4360.385, 4124.872, 4189.487, 4278.077
1722054291.9762,2024-07-26 21:24:51.976,104,false,0.0,4255.513, 4387.051, 4130.897, 4194.231, 4279.359
1722054291.984,2024-07-26 21:24:51.984,105,false,0.0,4258.077, 4386.026, 4140.0, 4190.513, 4273.333
1722054291.9918,2024-07-26 21:24:51.991,106,false,0.0,4264.359, 4375.513, 4149.872, 4199.103, 4278.846
1722054291.9996,2024-07-26 21:24:51.999,107,false,0.0,4263.077, 4369.744, 4145.513, 4206.026, 4282.564
1722054292.0074,2024-07-26 21:24:52.007,108,false,0.0,4258.846, 4371.667, 4133.846, 4199.615, 4273.333
1722054292.0153,2024-07-26 21:24:52.015,109,false,0.0,4258.846, 4369.231, 4129.103, 4187.18, 4267.436
1722054292.0231,2024-07-26 21:24:52.023,110,false,0.0,4251.667, 4357.564, 4128.333, 4179.615, 4267.18
1722054292.0309,2024-07-26 21:24:52.030,111,false,0.0,4250.897, 4363.846, 4131.795, 4188.59, 4269.744
1722054292.0387,2024-07-26 21:24:52.038,112,false,0.0,4268.718, 4386.41, 4137.051, 4197.949, 4277.564
1722054292.0465,2024-07-26 21:24:52.046,113,false,0.0,4273.718, 4390.0, 4133.718, 4187.564, 4276.282
1722054292.0543,2024-07-26 21:24:52.054,114,false,0.0,4260.256, 4377.564, 4128.59, 4183.974, 4268.077
1722054292.0621,2024-07-26 21:24:52.062,115,false,0.0,4254.872, 4369.872, 4120.769, 4194.103, 4270.769
1722054292.0699,2024-07-26 21:24:52.069,116,false,0.0,4251.539, 4366.795, 4098.974, 4180.897, 4266.667
1722054292.0778,2024-07-26 21:24:52.077,117,false,0.0,4245.128, 4365.256, 4088.718, 4159.744, 4249.359
1722054292.0856,2024-07-26 21:24:52.085,118,false,0.0,4249.103, 4359.872, 4104.103, 4167.949, 4248.077
1722054292.0934,2024-07-26 21:24:52.093,119,false,0.0,4252.436, 4354.872, 4108.974, 4181.539, 4257.436
1722054292.1012,2024-07-26 21:24:52.101,120,false,0.0,4246.923, 4365.256, 4101.41, 4181.667, 4254.103
1722054292.109,2024-07-26 21:24:52.109,121,false,0.0,4242.82, 4378.846, 4107.051, 4182.949, 4246.41
1722054292.1168,2024-07-26 21:24:52.116,122,false,0.0,4238.718, 4378.59, 4111.026, 4177.564, 4243.077
1722054292.1246,2024-07-26 21:24:52.124,123,false,0.0,4237.692, 4368.333, 4103.846, 4165.513, 4242.051
1722054292.1324,2024-07-26 21:24:52.132,124,false,0.0,4238.59, 4354.487, 4099.359, 4166.026, 4237.692
1722054292.1403,2024-07-26 21:24:52.140,125,false,0.0,4227.051, 4356.923, 4095.0, 4168.974, 4222.949
1722054292.1481,2024-07-26 21:24:52.148,126,false,0.0,4224.872, 4378.205, 4100.0, 4170.385, 4221.923
1722054292.1559,2024-07-26 21:24:52.155,127,false,0.0,4246.026, 4373.718, 4117.051, 4182.949, 4246.154
1722054292.1637,2024-07-26 21:24:52.163,0,false,0.0,4248.846, 4350.256, 4113.718, 4185.385, 4250.128
1722054292.1715,2024-07-26 21:24:52.171,1,false,0.0,4232.82, 4362.051, 4097.18, 4168.59, 4231.41
1722054292.1793,2024-07-26 21:24:52.179,2,false,0.0,4241.026, 4377.949, 4103.333, 4167.18, 4239.744
1722054292.1871,2024-07-26 21:24:52.187,3,false,0.0,4254.103, 4357.692, 4109.231, 4181.923, 4257.051
1722054292.1949,2024-07-26 21:24:52.194,4,false,0.0,4242.82, 4350.641, 4094.615, 4182.18, 4249.872
1722054292.2028,2024-07-26 21:24:52.202,5,false,0.0,4237.692, 4368.718, 4092.051, 4176.282, 4247.82
1722054292.2106,2024-07-26 21:24:52.210,6,false,0.0,4247.949, 4362.18, 4104.615, 4180.769, 4256.154
1722054292.2184,2024-07-26 21:24:52.218,7,false,0.0,4249.615, 4350.513, 4105.128, 4186.923, 4250.385
1722054292.2262,2024-07-26 21:24:52.226,8,false,0.0,4249.359, 4373.59, 4100.513, 4189.231, 4250.256
1722054292.234,2024-07-26 21:24:52.234,9,false,0.0,4253.077, 4392.18, 4104.615, 4189.103, 4266.154
1722054292.2418,2024-07-26 21:24:52.241,10,false,0.0,4248.974, 4377.949, 4108.974, 4187.436, 4271.667
1722054292.2496,2024-07-26 21:24:52.249,11,false,0.0,4245.128, 4371.539, 4109.103, 4190.256, 4268.077
1722054292.2574,2024-07-26 21:24:52.257,12,false,0.0,4247.18, 4381.154, 4107.82, 4190.256, 4268.461
1722054292.2653,2024-07-26 21:24:52.265,13,false,0.0,4242.82, 4369.744, 4105.385, 4177.051, 4266.923
1722054292.2731,2024-07-26 21:24:52.273,14,false,0.0,4239.359, 4354.231, 4103.974, 4170.641, 4267.18
1722054292.2809,2024-07-26 21:24:52.280,15,false,0.0,4246.282, 4364.615, 4102.436, 4180.641, 4271.282
1722054292.2887,2024-07-26 21:24:52.288,16,false,0.0,4245.513, 4367.18, 4096.795, 4182.692, 4267.564
1722054292.2965,2024-07-26 21:24:52.296,17,false,0.0,4237.051, 4357.692, 4095.513, 4176.539, 4264.615
1722054292.3043,2024-07-26 21:24:52.304,18,false,0.0,4240.769, 4371.154, 4100.128, 4180.641, 4271.026
1722054292.3121,2024-07-26 21:24:52.312,19,false,0.0,4243.974, 4375.897, 4091.795, 4179.872, 4268.205
1722054292.3199,2024-07-26 21:24:52.319,20,false,0.0,4235.641, 4354.615, 4077.179, 4169.615, 4260.641
1722054292.3278,2024-07-26 21:24:52.327,21,false,0.0,4239.872, 4356.667, 4085.769, 4176.026, 4273.974
1722054292.3356,2024-07-26 21:24:52.335,22,false,0.0,4251.539, 4371.795, 4101.154, 4189.872, 4289.359
1722054292.3434,2024-07-26 21:24:52.343,23,false,0.0,4244.615, 4368.974, 4092.436, 4184.487, 4281.282
1722054292.3512,2024-07-26 21:24:52.351,24,false,0.0,4235.128, 4372.436, 4079.744, 4174.487, 4270.769
1722054292.359,2024-07-26 21:24:52.359,25,false,0.0,4238.205, 4364.359, 4082.949, 4172.308, 4271.923
1722054292.3668,2024-07-26 21:24:52.366,26,false,0.0,4241.41, 4342.18, 4090.385, 4172.692, 4275.0
1722054292.3746,2024-07-26 21:24:52.374,27,false,0.0,4251.154, 4369.487, 4103.59, 4186.282, 4286.026
1722054292.3824,2024-07-26 21:24:52.382,28,false,0.0,4264.103, 4400.256, 4115.128, 4202.308, 4299.615
1722054292.3903,2024-07-26 21:24:52.390,29,false,0.0,4252.949, 4361.154, 4100.641, 4190.0, 4292.18
1722054292.3981,2024-07-26 21:24:52.398,30,false,0.0,4234.359, 4344.231, 4082.821, 4169.103, 4276.667
1722054292.4059,2024-07-26 21:24:52.405,31,false,0.0,4243.846, 4392.308, 4096.154, 4176.41, 4284.103
1722054292.4137,2024-07-26 21:24:52.413,32,false,0.0,4264.487, 4401.795, 4116.282, 4194.615, 4305.128
1722054292.4215,2024-07-26 21:24:52.421,33,false,0.0,4266.667, 4372.692, 4115.128, 4194.359, 4306.154
1722054292.4293,2024-07-26 21:24:52.429,34,false,0.0,4254.487, 4372.82, 4109.231, 4182.18, 4286.539
1722054292.4371,2024-07-26 21:24:52.437,35,false,0.0,4243.333, 4372.436, 4109.615, 4172.051, 4274.487
1722054292.4449,2024-07-26 21:24:52.444,36,false,0.0,4236.923, 4357.692, 4103.718, 4165.0, 4270.897
1722054292.4528,2024-07-26 21:24:52.452,37,false,0.0,4231.667, 4367.692, 4096.539, 4165.513, 4262.308
1722054292.4606,2024-07-26 21:24:52.460,38,false,0.0,4235.641, 4386.41, 4106.41, 4184.872, 4272.692
1722054292.4684,2024-07-26 21:24:52.468,39,false,0.0,4252.949, 4385.641, 4118.718, 4209.615, 4302.051
1722054292.4762,2024-07-26 21:24:52.476,40,false,0.0,4257.82, 4378.205, 4106.026, 4209.615, 4299.103
1722054292.484,2024-07-26 21:24:52.484,41,false,0.0,4242.051, 4374.487, 4088.846, 4190.513, 4271.282
1722054292.4918,2024-07-26 21:24:52.491,42,false,0.0,4232.436, 4375.385, 4094.872, 4178.461, 4266.923
1722054292.4996,2024-07-26 21:24:52.499,43,false,0.0,4226.539, 4374.487, 4098.333, 4169.872, 4264.744
1722054292.5074,2024-07-26 21:24:52.507,44,false,0.0,4210.385, 4362.051, 4083.846, 4159.231, 4242.051
1722054292.5153,2024-07-26 21:24:52.515,45,false,0.0,4206.154, 4354.487, 4081.282, 4161.026, 4235.128
1722054292.5231,2024-07-26 21:24:52.523,46,false,0.0,4220.385, 4369.103, 4096.154, 4173.205, 4252.18
1722054292.5309,2024-07-26 21:24:52.530,47,false,0.0,4232.692, 4384.231, 4105.128, 4181.154, 4266.795
1722054292.5387,2024-07-26 21:24:52.538,48,false,0.0,4239.487, 4375.256, 4102.949, 4182.82, 4268.333
1722054292.5465,2024-07-26 21:24:52.546,49,false,0.0,4238.974, 4359.872, 4097.564, 4181.282, 4255.256
1722054292.5543,2024-07-26 21:24:52.554,50,false,0.0,4231.539, 4367.82, 4096.41, 4181.282, 4245.897
1722054292.5621,2024-07-26 21:24:52.562,51,false,0.0,4231.154, 4382.692, 4098.718, 4183.461, 4254.615
1722054292.5699,2024-07-26 21:24:52.569,52,false,0.0,4233.205, 4371.41, 4092.564, 4178.59, 4254.615
1722054292.5778,2024-07-26 21:24:52.577,53,false,0.0,4229.872, 4354.615, 4082.308, 4168.974, 4244.231
1722054292.5856,2024-07-26 21:24:52.585,54,false,0.0,4233.974, 4355.0, 4084.615, 4167.18, 4252.308
1722054292.5934,2024-07-26 21:24:52.593,55,false,0.0,4238.974, 4353.974, 4093.205, 4173.718, 4259.615
1722054292.6012,2024-07-26 21:24:52.601,56,false,0.0,4236.154, 4366.154, 4098.59, 4186.539, 4248.846
1722054292.609,2024-07-26 21:24:52.609,57,false,0.0,4241.282, 4403.59, 4102.692, 4200.128, 4250.256
1722054292.6168,2024-07-26 21:24:52.616,58,false,0.0,4242.692, 4402.436, 4097.308, 4198.333, 4261.795
1722054292.6246,2024-07-26 21:24:52.624,59,false,0.0,4225.897, 4358.205, 4083.59, 4182.82, 4258.974
1722054292.6324,2024-07-26 21:24:52.632,60,false,0.0,4224.103, 4353.077, 4079.872, 4172.692, 4255.769
1722054292.6403,2024-07-26 21:24:52.640,61,false,0.0,4241.41, 4377.949, 4084.744, 4168.461, 4261.154
1722054292.6481,2024-07-26 21:24:52.648,62,false,0.0,4236.41, 4375.769, 4082.949, 4162.308, 4261.539
1722054292.6559,2024-07-26 21:24:52.655,63,false,0.0,4218.205, 4374.744, 4078.205, 4160.897, 4258.718
1722054292.6637,2024-07-26 21:24:52.663,64,false,0.0,4219.359, 4387.051, 4081.539, 4166.667, 4256.667
1722054292.6715,2024-07-26 21:24:52.671,65,false,0.0,4225.385, 4380.128, 4091.282, 4170.641, 4254.359
1722054292.6793,2024-07-26 21:24:52.679,66,false,0.0,4225.256, 4375.385, 4099.744, 4173.205, 4260.897
1722054292.6871,2024-07-26 21:24:52.687,67,false,0.0,4235.385, 4388.718, 4103.461, 4181.539, 4276.026
1722054292.6949,2024-07-26 21:24:52.694,68,false,0.0,4246.923, 4386.795, 4099.615, 4186.667, 4284.487
1722054292.7028,2024-07-26 21:24:52.702,69,false,0.0,4239.359, 4370.385, 4085.641, 4175.256, 4278.333
1722054292.7106,2024-07-26 21:24:52.710,70,false,0.0,4223.205, 4364.872, 4073.718, 4158.333, 4262.692
1722054292.7184,2024-07-26 21:24:52.718,71,false,0.0,4216.539, 4364.231, 4080.385, 4154.487, 4249.359
1722054292.7262,2024-07-26 21:24:52.726,72,false,0.0,4212.308, 4356.667, 4090.128, 4156.795, 4243.461
1722054292.734,2024-07-26 21:24:52.734,73,false,0.0,4201.026, 4349.744, 4082.436, 4151.41, 4238.461
1722054292.7418,2024-07-26 21:24:52.741,74,false,0.0,4195.641, 4348.333, 4075.641, 4145.0, 4236.154
1722054292.7496,2024-07-26 21:24:52.749,75,false,0.0,4207.051, 4341.795, 4083.205, 4145.769, 4241.667
1722054292.7574,2024-07-26 21:24:52.757,76,false,0.0,4217.949, 4332.949, 4086.282, 4147.308, 4248.333
1722054292.7653,2024-07-26 21:24:52.765,77,false,0.0,4213.461, 4343.846, 4080.385, 4146.154, 4252.564
1722054292.7731,2024-07-26 21:24:52.773,78,false,0.0,4206.41, 4363.718, 4080.0, 4150.769, 4256.154
1722054292.7809,2024-07-26 21:24:52.780,79,false,0.0,4209.615, 4371.282, 4086.154, 4164.744, 4257.051
1722054292.7887,2024-07-26 21:24:52.788,80,false,0.0,4217.18, 4381.923, 4094.487, 4178.59, 4260.513
1722054292.7965,2024-07-26 21:24:52.796,81,false,0.0,4221.795, 4388.59, 4103.333, 4182.692, 4267.436
1722054292.8043,2024-07-26 21:24:52.804,82,false,0.0,4226.795, 4372.564, 4107.949, 4182.051, 4269.231
1722054292.8121,2024-07-26 21:24:52.812,83,false,0.0,4233.461, 4370.256, 4109.487, 4184.231, 4271.41
1722054292.8199,2024-07-26 21:24:52.819,84,false,0.0,4233.461, 4382.949, 4110.256, 4184.359, 4278.077
1722054292.8278,2024-07-26 21:24:52.827,85,false,0.0,4227.949, 4362.308, 4111.923, 4181.667, 4277.949
1722054292.8356,2024-07-26 21:24:52.835,86,false,0.0,4233.846, 4347.18, 4121.41, 4187.308, 4276.923
1722054292.8434,2024-07-26 21:24:52.843,87,false,0.0,4251.026, 4381.923, 4136.795, 4203.59, 4290.641
1722054292.8512,2024-07-26 21:24:52.851,88,false,0.0,4262.308, 4406.154, 4147.436, 4217.308, 4306.795
1722054292.859,2024-07-26 21:24:52.859,89,false,0.0,4258.205, 4391.154, 4147.308, 4213.718, 4305.0
1722054292.8668,2024-07-26 21:24:52.866,90,false,0.0,4241.923, 4380.128, 4134.872, 4196.795, 4291.282
1722054292.8746,2024-07-26 21:24:52.874,91,false,0.0,4234.615, 4378.333, 4124.231, 4193.205, 4287.308
1722054292.8824,2024-07-26 21:24:52.882,92,false,0.0,4251.667, 4373.461, 4128.846, 4205.641, 4295.385
1722054292.8903,2024-07-26 21:24:52.890,93,false,0.0,4263.333, 4368.205, 4130.128, 4201.282, 4295.256
1722054292.8981,2024-07-26 21:24:52.898,94,false,0.0,4257.436, 4365.513, 4124.744, 4187.949, 4295.385
1722054292.9059,2024-07-26 21:24:52.905,95,false,0.0,4271.41, 4379.872, 4138.077, 4201.795, 4318.846
1722054292.9137,2024-07-26 21:24:52.913,96,false,0.0,4296.026, 4398.333, 4149.359, 4219.103, 4333.718
1722054292.9215,2024-07-26 21:24:52.921,97,false,0.0,4288.718, 4389.487, 4129.872, 4209.872, 4312.692
1722054292.9293,2024-07-26 21:24:52.929,98,false,0.0,4270.128, 4383.974, 4115.897, 4201.795, 4296.282
1722054292.9371,2024-07-26 21:24:52.937,99,false,0.0,4266.539, 4399.872, 4129.359, 4208.205, 4304.103
1722054292.9449,2024-07-26 21:24:52.944,100,false,0.0,4262.564, 4393.59, 4136.154, 4210.256, 4307.82
1722054292.9528,2024-07-26 21:24:52.952,101,false,0.0,4257.949, 4373.59, 4122.82, 4203.077, 4297.436
1722054292.9606,2024-07-26 21:24:52.960,102,false,0.0,4251.41, 4378.718, 4109.487, 4186.282, 4279.103
1722054292.9684,2024-07-26 21:24:52.968,103,false,0.0,4234.487, 4382.308, 4109.744, 4177.564, 4264.744
1722054292.9762,2024-07-26 21:24:52.976,104,false,0.0,4228.846, 4369.359, 4116.667, 4193.718, 4266.667
1722054292.984,2024-07-26 21:24:52.984,105,false,0.0,4237.18, 4366.795, 4110.769, 4196.026, 4263.205
1722054292.9918,2024-07-26 21:24:52.991,106,false,0.0,4232.308, 4373.846, 4101.667, 4173.461, 4248.846
1722054292.9996,2024-07-26 21:24:52.999,107,false,0.0,4227.436, 4380.513, 4109.103, 4179.359, 4255.897
1722054293.0074,2024-07-26 21:24:53.007,108,false,0.0,4242.18, 4386.154, 4110.256, 4203.974, 4273.333
1722054293.0153,2024-07-26 21:24:53.015,109,false,0.0,4257.564, 4381.282, 4098.205, 4200.0, 4273.974
1722054293.0231,2024-07-26 21:24:53.023,110,false,0.0,4257.82, 4374.872, 4100.385, 4187.308, 4272.051
1722054293.0309,2024-07-26 21:24:53.030,111,false,0.0,4245.641, 4377.308, 4102.949, 4184.103, 4266.41
1722054293.0387,2024-07-26 21:24:53.038,112,false,0.0,4233.461, 4377.051, 4090.897, 4178.974, 4250.513
1722054293.0465,2024-07-26 21:24:53.046,113,false,0.0,4232.564, 4375.897, 4092.692, 4181.795, 4244.487
1722054293.0543,2024-07-26 21:24:53.054,114,false,0.0,4230.385, 4376.026, 4103.846, 4185.0, 4239.872
1722054293.0621,2024-07-26 21:24:53.062,115,false,0.0,4221.41, 4364.103, 4106.154, 4176.667, 4230.769
1722054293.0699,2024-07-26 21:24:53.069,116,false,0.0,4223.974, 4358.846, 4117.051, 4182.564, 4244.231
1722054293.0778,2024-07-26 21:24:53.077,117,false,0.0,4230.385, 4379.103, 4124.744, 4197.051, 4258.846
1722054293.0856,2024-07-26 21:24:53.085,118,false,0.0,4225.0, 4388.077, 4110.385, 4191.41, 4244.487
1722054293.0934,2024-07-26 21:24:53.093,119,false,0.0,4224.487, 4373.974, 4107.82, 4187.051, 4239.231
1722054293.1012,2024-07-26 21:24:53.101,120,false,0.0,4238.461, 4379.487, 4126.282, 4200.769, 4258.333
1722054293.109,2024-07-26 21:24:53.109,121,false,0.0,4250.128, 4396.923, 4128.718, 4207.436, 4265.897
1722054293.1168,2024-07-26 21:24:53.116,122,false,0.0,4244.615, 4378.974, 4110.641, 4195.385, 4254.359
1722054293.1246,2024-07-26 21:24:53.124,123,false,0.0,4223.974, 4347.949, 4095.641, 4176.026, 4235.769
1722054293.1324,2024-07-26 21:24:53.132,124,false,0.0,4216.539, 4352.051, 4099.359, 4169.103, 4224.359
1722054293.1403,2024-07-26 21:24:53.140,125,false,0.0,4233.718, 4377.051, 4118.205, 4181.282, 4236.154
1722054293.1481,2024-07-26 21:24:53.148,126,false,0.0,4242.82, 4393.59, 4122.82, 4186.026, 4250.0
1722054293.1559,2024-07-26 21:24:53.155,127,false,0.0,4237.436, 4398.974, 4111.282, 4177.564, 4246.539
1722054293.1637,2024-07-26 21:24:53.163,0,false,0.0,4239.744, 4387.949, 4113.974, 4179.103, 4243.846
1722054293.1715,2024-07-26 21:24:53.171,1,false,0.0,4227.051, 4363.974, 4116.282, 4172.692, 4231.667
1722054293.1793,2024-07-26 21:24:53.179,2,false,0.0,4194.359, 4348.461, 4098.846, 4150.513, 4206.026
1722054293.1871,2024-07-26 21:24:53.187,3,false,0.0,4192.692, 4345.128, 4095.385, 4154.359, 4210.897
1722054293.1949,2024-07-26 21:24:53.194,4,false,0.0,4214.103, 4346.667, 4107.692, 4170.897, 4228.846
1722054293.2028,2024-07-26 21:24:53.202,5,false,0.0,4205.256, 4350.256, 4100.513, 4155.0, 4209.615
1722054293.2106,2024-07-26 21:24:53.210,6,false,0.0,4188.974, 4345.128, 4090.0, 4139.744, 4194.359
1722054293.2184,2024-07-26 21:24:53.218,7,false,0.0,4196.923, 4337.82, 4092.436, 4153.077, 4211.026
1722054293.2262,2024-07-26 21:24:53.226,8,false,0.0,4194.615, 4341.795, 4080.385, 4155.128, 4207.18
1722054293.234,2024-07-26 21:24:53.234,9,false,0.0,4176.667, 4335.769, 4060.513, 4142.308, 4188.718
1722054293.2418,2024-07-26 21:24:53.241,10,false,0.0,4178.461, 4320.897, 4063.846, 4147.051, 4199.359
1722054293.2496,2024-07-26 21:24:53.249,11,false,0.0,4193.461, 4335.128, 4078.461, 4159.359, 4216.41
1722054293.2574,2024-07-26 21:24:53.257,12,false,0.0,4202.18, 4355.256, 4081.667, 4159.359, 4217.564
1722054293.2653,2024-07-26 21:24:53.265,13,false,0.0,4208.974, 4342.051, 4076.41, 4153.59, 4217.82
1722054293.2731,2024-07-26 21:24:53.273,14,false,0.0,4213.461, 4334.103, 4075.385, 4153.974, 4220.769
1722054293.2809,2024-07-26 21:24:53.280,15,false,0.0,4216.923, 4351.026, 4083.077, 4165.769, 4228.718
1722054293.2887,2024-07-26 21:24:53.288,16,false,0.0,4218.333, 4347.436, 4082.949, 4173.205, 4232.692
1722054293.2965,2024-07-26 21:24:53.296,17,false,0.0,4204.231, 4327.82, 4068.333, 4163.333, 4215.0
1722054293.3043,2024-07-26 21:24:53.304,18,false,0.0,4193.846, 4334.744, 4067.179, 4159.231, 4204.231
1722054293.3121,2024-07-26 21:24:53.312,19,false,0.0,4210.513, 4356.41, 4084.615, 4171.539, 4221.282
1722054293.3199,2024-07-26 21:24:53.319,20,false,0.0,4222.051, 4360.128, 4090.641, 4177.308, 4228.718
1722054293.3278,2024-07-26 21:24:53.327,21,false,0.0,4210.513, 4347.436, 4085.513, 4177.949, 4221.41
1722054293.3356,2024-07-26 21:24:53.335,22,false,0.0,4205.897, 4338.077, 4083.205, 4181.923, 4224.872
1722054293.3434,2024-07-26 21:24:53.343,23,false,0.0,4205.385, 4336.923, 4072.308, 4173.333, 4218.333
1722054293.3512,2024-07-26 21:24:53.351,24,false,0.0,4195.128, 4332.692, 4058.718, 4159.615, 4199.615
1722054293.359,2024-07-26 21:24:53.359,25,false,0.0,4200.897, 4331.026, 4064.231, 4165.256, 4209.487
1722054293.3668,2024-07-26 21:24:53.366,26,false,0.0,4222.436, 4343.974, 4078.846, 4178.846, 4233.461
1722054293.3746,2024-07-26 21:24:53.374,27,false,0.0,4227.308, 4354.103, 4085.513, 4181.539, 4231.41
1722054293.3824,2024-07-26 21:24:53.382,28,false,0.0,4219.615, 4350.897, 4086.795, 4179.744, 4222.82
1722054293.3903,2024-07-26 21:24:53.390,29,false,0.0,4220.385, 4345.385, 4086.282, 4179.103, 4232.308
1722054293.3981,2024-07-26 21:24:53.398,30,false,0.0,4227.692, 4336.282, 4087.692, 4180.256, 4239.872
1722054293.4059,2024-07-26 21:24:53.405,31,false,0.0,4232.051, 4335.641, 4089.487, 4180.769, 4234.103
1722054293.4137,2024-07-26 21:24:53.413,32,false,0.0,4226.795, 4348.205, 4078.974, 4170.385, 4227.564
1722054293.4215,2024-07-26 21:24:53.421,33,false,0.0,4215.385, 4334.744, 4065.0, 4157.18, 4225.256
1722054293.4293,2024-07-26 21:24:53.429,34,false,0.0,4214.231, 4312.564, 4069.359, 4163.205, 4227.18
1722054293.4371,2024-07-26 21:24:53.437,35,false,0.0,4220.513, 4335.0, 4077.436, 4177.051, 4232.308
1722054293.4449,2024-07-26 21:24:53.444,36,false,0.0,4215.0, 4357.051, 4066.923, 4171.923, 4228.205
1722054293.4528,2024-07-26 21:24:53.452,37,false,0.0,4205.256, 4344.615, 4058.59, 4157.82, 4219.231
1722054293.4606,2024-07-26 21:24:53.460,38,false,0.0,4212.436, 4347.051, 4072.308, 4157.82, 4229.744
1722054293.4684,2024-07-26 21:24:53.468,39,false,0.0,4224.231, 4347.436, 4085.769, 4164.103, 4245.769
1722054293.4762,2024-07-26 21:24:53.476,40,false,0.0,4218.974, 4324.487, 4081.282, 4162.564, 4236.026
1722054293.484,2024-07-26 21:24:53.484,41,false,0.0,4210.897, 4335.513, 4075.897, 4159.103, 4226.795
1722054293.4918,2024-07-26 21:24:53.491,42,false,0.0,4224.615, 4356.282, 4083.974, 4162.308, 4255.385
1722054293.4996,2024-07-26 21:24:53.499,43,false,0.0,4251.154, 4338.846, 4097.949, 4174.615, 4296.282
1722054293.5074,2024-07-26 21:24:53.507,44,false,0.0,4263.59, 4340.0, 4105.641, 4190.128, 4316.41
1722054293.5153,2024-07-26 21:24:53.515,45,false,0.0,4258.333, 4354.615, 4101.539, 4195.641, 4325.0
1722054293.5231,2024-07-26 21:24:53.523,46,false,0.0,4258.59, 4331.41, 4093.974, 4191.539, 4333.205
1722054293.5309,2024-07-26 21:24:53.530,47,false,0.0,4267.051, 4320.128, 4092.308, 4188.59, 4335.256
1722054293.5387,2024-07-26 21:24:53.538,48,false,0.0,4260.128, 4328.333, 4091.41, 4187.564, 4330.897
1722054293.5465,2024-07-26 21:24:53.546,49,false,0.0,4252.564, 4315.385, 4088.718, 4192.18, 4333.077
1722054293.5543,2024-07-26 21:24:53.554,50,false,0.0,4269.615, 4328.333, 4093.205, 4199.872, 4341.539
1722054293.5621,2024-07-26 21:24:53.562,51,false,0.0,4278.59, 4358.718, 4104.103, 4195.513, 4339.231
1722054293.5699,2024-07-26 21:24:53.569,52,false,0.0,4265.769, 4340.769, 4114.744, 4193.461, 4335.385
1722054293.5778,2024-07-26 21:24:53.577,53,false,0.0,4269.487, 4325.128, 4120.897, 4209.615, 4348.077
1722054293.5856,2024-07-26 21:24:53.585,54,false,0.0,4277.949, 4347.051, 4116.282, 4216.667, 4351.41
1722054293.5934,2024-07-26 21:24:53.593,55,false,0.0,4263.718, 4353.333, 4109.359, 4209.487, 4333.077
1722054293.6012,2024-07-26 21:24:53.601,56,false,0.0,4258.333, 4348.333, 4113.077, 4213.846, 4327.18
1722054293.609,2024-07-26 21:24:53.609,57,false,0.0,4262.18, 4344.231, 4116.154, 4213.461, 4329.872
1722054293.6168,2024-07-26 21:24:53.616,58,false,0.0,4246.154, 4328.205, 4111.667, 4196.026, 4315.897
1722054293.6246,2024-07-26 21:24:53.624,59,false,0.0,4237.308, 4338.077, 4113.718, 4193.846, 4307.436
1722054293.6324,2024-07-26 21:24:53.632,60,false,0.0,4249.103, 4366.539, 4121.539, 4211.667, 4317.692
1722054293.6403,2024-07-26 21:24:53.640,61,false,0.0,4249.872, 4358.205, 4121.282, 4226.154, 4324.615
1722054293.6481,2024-07-26 21:24:53.648,62,false,0.0,4243.205, 4342.051, 4110.128, 4228.59, 4317.436
1722054293.6559,2024-07-26 21:24:53.655,63,false,0.0,4242.436, 4347.949, 4099.231, 4215.128, 4301.923
1722054293.6637,2024-07-26 21:24:53.663,64,false,0.0,4239.487, 4345.128, 4105.385, 4200.641, 4296.539
1722054293.6715,2024-07-26 21:24:53.671,65,false,0.0,4243.461, 4335.769, 4118.077, 4206.41, 4308.974
1722054293.6793,2024-07-26 21:24:53.679,66,false,0.0,4253.077, 4335.256, 4111.667, 4215.128, 4311.282
1722054293.6871,2024-07-26 21:24:53.687,67,false,0.0,4252.051, 4341.539, 4103.461, 4212.051, 4299.872
1722054293.6949,2024-07-26 21:24:53.694,68,false,0.0,4252.82, 4359.487, 4114.872, 4211.667, 4302.564
1722054293.7028,2024-07-26 21:24:53.702,69,false,0.0,4260.128, 4362.308, 4119.744, 4212.564, 4308.077
1722054293.7106,2024-07-26 21:24:53.710,70,false,0.0,4255.0, 4338.461, 4109.487, 4206.667, 4299.359
1722054293.7184,2024-07-26 21:24:53.718,71,false,0.0,4246.282, 4336.41, 4109.103, 4204.615, 4293.205
1722054293.7262,2024-07-26 21:24:53.726,72,false,0.0,4248.205, 4352.949, 4114.103, 4206.795, 4291.154
1722054293.734,2024-07-26 21:24:53.734,73,false,0.0,4249.103, 4348.846, 4112.82, 4210.385, 4286.539
1722054293.7418,2024-07-26 21:24:53.741,74,false,0.0,4250.769, 4347.308, 4114.487, 4219.231, 4290.256
1722054293.7496,2024-07-26 21:24:53.749,75,false,0.0,4259.359, 4352.18, 4111.667, 4220.897, 4294.487
1722054293.7574,2024-07-26 21:24:53.757,76,false,0.0,4258.718, 4339.103, 4100.641, 4207.308, 4287.18
1722054293.7653,2024-07-26 21:24:53.765,77,false,0.0,4253.077, 4345.385, 4104.872, 4202.308, 4284.487
1722054293.7731,2024-07-26 21:24:53.773,78,false,0.0,4263.718, 4371.154, 4122.051, 4219.359, 4294.487
1722054293.7809,2024-07-26 21:24:53.780,79,false,0.0,4275.513, 4357.564, 4123.461, 4234.744, 4300.256
1722054293.7887,2024-07-26 21:24:53.788,80,false,0.0,4268.077, 4335.256, 4114.487, 4226.923, 4291.795
1722054293.7965,2024-07-26 21:24:53.796,81,false,0.0,4262.436, 4352.308, 4119.103, 4213.333, 4288.846
1722054293.8043,2024-07-26 21:24:53.804,82,false,0.0,4272.949, 4362.692, 4129.103, 4218.974, 4309.103
1722054293.8121,2024-07-26 21:24:53.812,83,false,0.0,4278.333, 4351.282, 4124.487, 4230.769, 4322.308
1722054293.8199,2024-07-26 21:24:53.819,84,false,0.0,4271.026, 4355.513, 4112.18, 4224.615, 4304.744
1722054293.8278,2024-07-26 21:24:53.827,85,false,0.0,4266.539, 4358.205, 4105.513, 4208.59, 4292.18
1722054293.8356,2024-07-26 21:24:53.835,86,false,0.0,4267.564, 4350.128, 4099.487, 4201.795, 4299.359
1722054293.8434,2024-07-26 21:24:53.843,87,false,0.0,4269.231, 4360.769, 4097.308, 4208.59, 4297.051
1722054293.8512,2024-07-26 21:24:53.851,88,false,0.0,4274.103, 4370.0, 4113.333, 4223.461, 4293.974
1722054293.859,2024-07-26 21:24:53.859,89,false,0.0,4280.256, 4353.974, 4133.59, 4228.846, 4308.846
1722054293.8668,2024-07-26 21:24:53.866,90,false,0.0,4281.026, 4345.385, 4133.205, 4220.128, 4319.231
1722054293.8746,2024-07-26 21:24:53.874,91,false,0.0,4279.359, 4356.41, 4122.18, 4221.282, 4316.539
1722054293.8824,2024-07-26 21:24:53.882,92,false,0.0,4282.692, 4364.103, 4119.487, 4233.974, 4312.949
1722054293.8903,2024-07-26 21:24:53.890,93,false,0.0,4283.59, 4364.615, 4119.231, 4230.0, 4302.82
1722054293.8981,2024-07-26 21:24:53.898,94,false,0.0,4268.461, 4361.667, 4114.744, 4212.436, 4289.103
1722054293.9059,2024-07-26 21:24:53.905,95,false,0.0,4253.077, 4358.461, 4111.41, 4208.461, 4286.667
1722054293.9137,2024-07-26 21:24:53.913,96,false,0.0,4262.18, 4366.539, 4112.051, 4220.128, 4293.077
1722054293.9215,2024-07-26 21:24:53.921,97,false,0.0,4274.103, 4376.282, 4112.308, 4226.026, 4292.82
1722054293.9293,2024-07-26 21:24:53.929,98,false,0.0,4257.692, 4364.744, 4104.359, 4211.026, 4274.872
1722054293.9371,2024-07-26 21:24:53.937,99,false,0.0,4240.641, 4346.667, 4094.487, 4193.846, 4258.718
1722054293.9449,2024-07-26 21:24:53.944,100,false,0.0,4252.436, 4353.846, 4100.256, 4204.359, 4272.308
1722054293.9528,2024-07-26 21:24:53.952,101,false,0.0,4269.872, 4371.923, 4116.539, 4228.461, 4295.256
1722054293.9606,2024-07-26 21:24:53.960,102,false,0.0,4276.795, 4367.949, 4126.667, 4236.026, 4300.897
1722054293.9684,2024-07-26 21:24:53.968,103,false,0.0,4281.539, 4361.282, 4130.513, 4232.564, 4300.769
1722054293.9762,2024-07-26 21:24:53.976,104,false,0.0,4273.333, 4375.385, 4125.0, 4224.103, 4292.051
1722054293.984,2024-07-26 21:24:53.984,105,false,0.0,4252.82, 4376.667, 4107.436, 4208.077, 4269.615
1722054293.9918,2024-07-26 21:24:53.991,106,false,0.0,4248.077, 4352.051, 4096.667, 4198.846, 4260.769
1722054293.9996,2024-07-26 21:24:53.999,107,false,0.0,4253.974, 4343.205, 4098.461, 4196.923, 4261.539
1722054294.0074,2024-07-26 21:24:54.007,108,false,0.0,4248.846, 4356.154, 4097.18, 4192.308, 4251.923
1722054294.0153,2024-07-26 21:24:54.015,109,false,0.0,4249.359, 4362.308, 4097.308, 4201.154, 4257.692
1722054294.0231,2024-07-26 21:24:54.023,110,false,0.0,4263.461, 4364.487, 4105.769, 4221.41, 4279.231
1722054294.0309,2024-07-26 21:24:54.030,111,false,0.0,4265.0, 4365.513, 4107.949, 4220.897, 4275.769
1722054294.0387,2024-07-26 21:24:54.038,112,false,0.0,4257.051, 4358.974, 4106.795, 4206.539, 4263.077
1722054294.0465,2024-07-26 21:24:54.046,113,false,0.0,4259.744, 4358.59, 4115.897, 4208.333, 4273.846
1722054294.0543,2024-07-26 21:24:54.054,114,false,0.0,4257.308, 4357.18, 4116.667, 4216.282, 4280.385
1722054294.0621,2024-07-26 21:24:54.062,115,false,0.0,4242.82, 4340.0, 4099.615, 4210.513, 4267.051
1722054294.0699,2024-07-26 21:24:54.069,116,false,0.0,4241.795, 4338.974, 4096.026, 4204.359, 4264.872
1722054294.0778,2024-07-26 21:24:54.077,117,false,0.0,4249.615, 4365.0, 4112.308, 4210.0, 4275.385
1722054294.0856,2024-07-26 21:24:54.085,118,false,0.0,4243.974, 4377.82, 4113.333, 4213.461, 4272.692
1722054294.0934,2024-07-26 21:24:54.093,119,false,0.0,4239.359, 4372.82, 4097.692, 4208.974, 4264.231
1722054294.1012,2024-07-26 21:24:54.101,120,false,0.0,4248.974, 4372.051, 4096.41, 4211.41, 4270.385
1722054294.109,2024-07-26 21:24:54.109,121,false,0.0,4255.385, 4368.333, 4104.744, 4214.615, 4279.103
1722054294.1168,2024-07-26 21:24:54.116,122,false,0.0,4251.282, 4364.359, 4102.051, 4202.949, 4276.026
1722054294.1246,2024-07-26 21:24:54.124,123,false,0.0,4246.41, 4369.487, 4101.795, 4196.282, 4274.103
1722054294.1324,2024-07-26 21:24:54.132,124,false,0.0,4243.077, 4361.923, 4110.513, 4205.513, 4279.615
1722054294.1403,2024-07-26 21:24:54.140,125,false,0.0,4241.41, 4338.846, 4104.487, 4204.872, 4277.18
1722054294.1481,2024-07-26 21:24:54.148,126,false,0.0,4247.051, 4332.692, 4092.949, 4199.872, 4269.487
1722054294.1559,2024-07-26 21:24:54.155,127,false,0.0,4260.513, 4358.333, 4110.256, 4214.872, 4276.282
1722054294.1637,2024-07-26 21:24:54.163,0,false,0.0,4270.256, 4392.051, 4132.692, 4225.128, 4290.0
1722054294.1715,2024-07-26 21:24:54.171,1,false,0.0,4262.051, 4392.436, 4119.615, 4210.385, 4286.154
1722054294.1793,2024-07-26 21:24:54.179,2,false,0.0,4245.897, 4359.487, 4099.231, 4198.461, 4270.256
1722054294.1871,2024-07-26 21:24:54.187,3,false,0.0,4242.564, 4348.461, 4101.795, 4197.949, 4263.461
1722054294.1949,2024-07-26 21:24:54.194,4,false,0.0,4242.949, 4361.41, 4100.0, 4192.18, 4262.82
1722054294.2028,2024-07-26 21:24:54.202,5,false,0.0,4233.077, 4351.795, 4086.154, 4187.564, 4255.385
1722054294.2106,2024-07-26 21:24:54.210,6,false,0.0,4230.897, 4344.231, 4088.846, 4192.692, 4252.308
1722054294.2184,2024-07-26 21:24:54.218,7,false,0.0,4246.795, 4371.026, 4105.513, 4197.949, 4267.436
1722054294.2262,2024-07-26 21:24:54.226,8,false,0.0,4257.051, 4389.103, 4117.18, 4200.0, 4283.59
1722054294.234,2024-07-26 21:24:54.234,9,false,0.0,4248.974, 4380.0, 4119.359, 4200.897, 4278.974
1722054294.2418,2024-07-26 21:24:54.241,10,false,0.0,4241.026, 4364.359, 4110.385, 4196.026, 4263.461
1722054294.2496,2024-07-26 21:24:54.249,11,false,0.0,4239.615, 4343.59, 4105.0, 4187.564, 4255.385
1722054294.2574,2024-07-26 21:24:54.257,12,false,0.0,4229.487, 4342.436, 4114.231, 4183.205, 4249.744
1722054294.2653,2024-07-26 21:24:54.265,13,false,0.0,4222.82, 4370.641, 4115.769, 4181.154, 4241.41
1722054294.2731,2024-07-26 21:24:54.273,14,false,0.0,4246.923, 4376.923, 4107.18, 4177.436, 4242.949
1722054294.2809,2024-07-26 21:24:54.280,15,false,0.0,4278.461, 4362.692, 4107.308, 4175.128, 4252.051
1722054294.2887,2024-07-26 21:24:54.288,16,false,0.0,4285.256, 4373.846, 4103.718, 4173.077, 4248.205
1722054294.2965,2024-07-26 21:24:54.296,17,false,0.0,4293.718, 4388.205, 4096.026, 4165.513, 4240.769
1722054294.3043,2024-07-26 21:24:54.304,18,false,0.0,4318.077, 4383.59, 4104.487, 4159.872, 4251.795
1722054294.3121,2024-07-26 21:24:54.312,19,false,0.0,4321.282, 4385.385, 4111.539, 4165.769, 4264.231
1722054294.3199,2024-07-26 21:24:54.319,20,false,0.0,4308.077, 4388.205, 4106.282, 4173.461, 4260.128
1722054294.3278,2024-07-26 21:24:54.327,21,false,0.0,4309.872, 4378.718, 4112.436, 4171.923, 4255.641
1722054294.3356,2024-07-26 21:24:54.335,22,false,0.0,4305.128, 4375.513, 4122.18, 4169.487, 4254.103
1722054294.3434,2024-07-26 21:24:54.343,23,false,0.0,4281.795, 4375.769, 4119.487, 4171.154, 4242.82
1722054294.3512,2024-07-26 21:24:54.351,24,false,0.0,4272.051, 4363.077, 4115.769, 4167.436, 4233.205
1722054294.359,2024-07-26 21:24:54.359,25,false,0.0,4277.051, 4352.949, 4113.846, 4161.282, 4235.769
1722054294.3668,2024-07-26 21:24:54.366,26,false,0.0,4277.308, 4357.692, 4116.154, 4168.205, 4239.231
1722054294.3746,2024-07-26 21:24:54.374,27,false,0.0,4277.436, 4362.949, 4125.256, 4180.0, 4235.513
1722054294.3824,2024-07-26 21:24:54.382,28,false,0.0,4277.82, 4367.436, 4124.231, 4178.974, 4230.641
1722054294.3903,2024-07-26 21:24:54.390,29,false,0.0,4280.128, 4385.513, 4124.231, 4179.231, 4238.461
1722054294.3981,2024-07-26 21:24:54.398,30,false,0.0,4286.667, 4397.564, 4136.539, 4187.82, 4251.795
1722054294.4059,2024-07-26 21:24:54.405,31,false,0.0,4276.026, 4377.436, 4126.539, 4182.18, 4238.077
1722054294.4137,2024-07-26 21:24:54.413,32,false,0.0,4257.692, 4360.128, 4107.308, 4173.59, 4211.026
1722054294.4215,2024-07-26 21:24:54.421,33,false,0.0,4269.487, 4379.872, 4125.256, 4190.769, 4219.359
1722054294.4293,2024-07-26 21:24:54.429,34,false,0.0,4283.333, 4395.385, 4140.641, 4203.205, 4240.897
1722054294.4371,2024-07-26 21:24:54.437,35,false,0.0,4264.615, 4380.641, 4116.667, 4188.333, 4230.256
1722054294.4449,2024-07-26 21:24:54.444,36,false,0.0,4258.077, 4372.564, 4103.974, 4183.974, 4217.564
1722054294.4528,2024-07-26 21:24:54.452,37,false,0.0,4282.18, 4376.41, 4119.615, 4196.539, 4231.154
1722054294.4606,2024-07-26 21:24:54.460,38,false,0.0,4290.769, 4371.539, 4124.487, 4191.667, 4243.077
1722054294.4684,2024-07-26 21:24:54.468,39,false,0.0,4276.154, 4371.539, 4115.897, 4176.923, 4238.205
1722054294.4762,2024-07-26 21:24:54.476,40,false,0.0,4265.256, 4379.103, 4111.282, 4175.385, 4227.18
1722054294.484,2024-07-26 21:24:54.484,41,false,0.0,4263.974, 4376.282, 4113.077, 4179.872, 4222.051
1722054294.4918,2024-07-26 21:24:54.491,42,false,0.0,4269.487, 4375.256, 4119.359, 4184.231, 4232.82
1722054294.4996,2024-07-26 21:24:54.499,43,false,0.0,4275.513, 4384.615, 4122.308, 4192.82, 4246.539
1722054294.5074,2024-07-26 21:24:54.507,44,false,0.0,4276.154, 4381.41, 4116.795, 4199.487, 4246.282
1722054294.5153,2024-07-26 21:24:54.515,45,false,0.0,4271.154, 4364.615, 4106.026, 4192.18, 4239.744
1722054294.5231,2024-07-26 21:24:54.523,46,false,0.0,4256.539, 4357.82, 4093.077, 4175.0, 4232.949
1722054294.5309,2024-07-26 21:24:54.530,47,false,0.0,4249.231, 4365.128, 4090.128, 4174.487, 4229.615
1722054294.5387,2024-07-26 21:24:54.538,48,false,0.0,4268.718, 4377.692, 4101.154, 4196.667, 4238.333
1722054294.5465,2024-07-26 21:24:54.546,49,false,0.0,4282.436, 4389.103, 4105.897, 4205.769, 4245.256
1722054294.5543,2024-07-26 21:24:54.554,50,false,0.0,4264.487, 4386.282, 4098.974, 4189.103, 4238.59
1722054294.5621,2024-07-26 21:24:54.562,51,false,0.0,4250.128, 4371.923, 4094.615, 4179.872, 4236.795
1722054294.5699,2024-07-26 21:24:54.569,52,false,0.0,4255.641, 4370.0, 4094.615, 4190.769, 4243.077
1722054294.5778,2024-07-26 21:24:54.577,53,false,0.0,4257.82, 4378.974, 4097.051, 4198.461, 4241.667
1722054294.5856,2024-07-26 21:24:54.585,54,false,0.0,4255.897, 4377.82, 4103.59, 4193.333, 4237.051
1722054294.5934,2024-07-26 21:24:54.593,55,false,0.0,4255.256, 4372.051, 4108.205, 4188.077, 4236.667
1722054294.6012,2024-07-26 21:24:54.601,56,false,0.0,4250.897, 4370.513, 4109.487, 4190.0, 4235.769
1722054294.609,2024-07-26 21:24:54.609,57,false,0.0,4251.282, 4367.436, 4114.103, 4194.103, 4237.436
1722054294.6168,2024-07-26 21:24:54.616,58,false,0.0,4253.205, 4375.256, 4117.692, 4196.282, 4239.872
1722054294.6246,2024-07-26 21:24:54.624,59,false,0.0,4240.128, 4394.744, 4111.282, 4194.872, 4232.18
1722054294.6324,2024-07-26 21:24:54.632,60,false,0.0,4224.487, 4387.949, 4095.769, 4185.385, 4220.256
1722054294.6403,2024-07-26 21:24:54.640,61,false,0.0,4221.026, 4358.974, 4078.077, 4169.744, 4213.718
1722054294.6481,2024-07-26 21:24:54.648,62,false,0.0,4217.82, 4356.539, 4070.128, 4163.333, 4207.692
1722054294.6559,2024-07-26 21:24:54.655,63,false,0.0,4217.18, 4371.795, 4082.821, 4173.974, 4207.949
1722054294.6637,2024-07-26 21:24:54.663,64,false,0.0,4229.231, 4368.333, 4100.0, 4186.154, 4223.077
1722054294.6715,2024-07-26 21:24:54.671,65,false,0.0,4241.667, 4367.692, 4099.487, 4183.974, 4236.539
1722054294.6793,2024-07-26 21:24:54.679,66,false,0.0,4245.769, 4383.077, 4096.795, 4174.744, 4238.718
1722054294.6871,2024-07-26 21:24:54.687,67,false,0.0,4242.82, 4380.769, 4104.231, 4169.487, 4237.82
1722054294.6949,2024-07-26 21:24:54.694,68,false,0.0,4228.846, 4363.461, 4098.846, 4167.308, 4227.436
1722054294.7028,2024-07-26 21:24:54.702,69,false,0.0,4220.0, 4360.0, 4088.974, 4172.436, 4214.744
1722054294.7106,2024-07-26 21:24:54.710,70,false,0.0,4232.436, 4368.461, 4104.872, 4185.385, 4226.41
1722054294.7184,2024-07-26 21:24:54.718,71,false,0.0,4245.513, 4386.282, 4119.872, 4190.128, 4247.308
1722054294.7262,2024-07-26 21:24:54.726,72,false,0.0,4246.154, 4398.461, 4107.692, 4183.718, 4247.564
1722054294.734,2024-07-26 21:24:54.734,73,false,0.0,4246.154, 4376.154, 4097.436, 4177.692, 4240.641
1722054294.7418,2024-07-26 21:24:54.741,74,false,0.0,4243.59, 4355.513, 4101.154, 4173.077, 4239.487
1722054294.7496,2024-07-26 21:24:54.749,75,false,0.0,4236.41, 4372.436, 4101.539, 4173.077, 4236.026
1722054294.7574,2024-07-26 21:24:54.757,76,false,0.0,4235.513, 4379.103, 4099.103, 4179.359, 4232.436
1722054294.7653,2024-07-26 21:24:54.765,77,false,0.0,4244.103, 4374.487, 4102.308, 4185.0, 4235.385
1722054294.7731,2024-07-26 21:24:54.773,78,false,0.0,4257.82, 4399.872, 4110.128, 4191.667, 4243.461
1722054294.7809,2024-07-26 21:24:54.780,79,false,0.0,4258.333, 4401.41, 4108.077, 4188.461, 4244.615
1722054294.7887,2024-07-26 21:24:54.788,80,false,0.0,4240.128, 4361.41, 4091.923, 4168.59, 4232.308
1722054294.7965,2024-07-26 21:24:54.796,81,false,0.0,4243.205, 4365.641, 4094.359, 4171.41, 4233.846
1722054294.8043,2024-07-26 21:24:54.804,82,false,0.0,4269.103, 4397.692, 4114.744, 4195.256, 4253.974
1722054294.8121,2024-07-26 21:24:54.812,83,false,0.0,4268.974, 4389.872, 4110.513, 4186.667, 4251.539
1722054294.8199,2024-07-26 21:24:54.819,84,false,0.0,4260.385, 4386.282, 4103.974, 4175.769, 4241.539
1722054294.8278,2024-07-26 21:24:54.827,85,false,0.0,4276.539, 4403.077, 4121.41, 4200.513, 4257.949
1722054294.8356,2024-07-26 21:24:54.835,86,false,0.0,4277.82, 4390.128, 4116.41, 4202.436, 4260.897
1722054294.8434,2024-07-26 21:24:54.843,87,false,0.0,4260.0, 4371.539, 4096.539, 4179.744, 4241.795
1722054294.8512,2024-07-26 21:24:54.851,88,false,0.0,4260.641, 4373.077, 4107.051, 4189.615, 4242.051
1722054294.859,2024-07-26 21:24:54.859,89,false,0.0,4260.128, 4364.872, 4111.282, 4198.846, 4241.154
1722054294.8668,2024-07-26 21:24:54.866,90,false,0.0,4250.641, 4359.615, 4099.103, 4185.256, 4226.154
1722054294.8746,2024-07-26 21:24:54.874,91,false,0.0,4257.051, 4373.205, 4112.692, 4190.0, 4233.461
1722054294.8824,2024-07-26 21:24:54.882,92,false,0.0,4260.513, 4378.333, 4125.385, 4197.18, 4246.667
1722054294.8903,2024-07-26 21:24:54.890,93,false,0.0,4259.872, 4376.667, 4117.308, 4191.026, 4245.0
1722054294.8981,2024-07-26 21:24:54.898,94,false,0.0,4273.077, 4375.513, 4122.308, 4194.103, 4249.103
1722054294.9059,2024-07-26 21:24:54.905,95,false,0.0,4267.308, 4365.641, 4125.513, 4187.18, 4245.513
1722054294.9137,2024-07-26 21:24:54.913,96,false,0.0,4250.769, 4371.539, 4120.385, 4177.564, 4238.077
1722054294.9215,2024-07-26 21:24:54.921,97,false,0.0,4270.128, 4391.154, 4134.231, 4198.846, 4259.744
1722054294.9293,2024-07-26 21:24:54.929,98,false,0.0,4283.974, 4378.59, 4131.539, 4204.744, 4269.231
1722054294.9371,2024-07-26 21:24:54.937,99,false,0.0,4262.564, 4358.077, 4100.769, 4177.051, 4242.82
1722054294.9449,2024-07-26 21:24:54.944,100,false,0.0,4259.744, 4372.18, 4099.615, 4175.769, 4242.308
1722054294.9528,2024-07-26 21:24:54.952,101,false,0.0,4274.872, 4375.769, 4116.539, 4191.667, 4268.333
1722054294.9606,2024-07-26 21:24:54.960,102,false,0.0,4275.256, 4353.077, 4113.974, 4191.795, 4274.103
1722054294.9684,2024-07-26 21:24:54.968,103,false,0.0,4286.282, 4369.103, 4117.18, 4200.641, 4278.333
1722054294.9762,2024-07-26 21:24:54.976,104,false,0.0,4300.769, 4407.949, 4123.333, 4207.308, 4287.18
1722054294.984,2024-07-26 21:24:54.984,105,false,0.0,4282.308, 4392.692, 4107.82, 4189.615, 4271.41
1722054294.9918,2024-07-26 21:24:54.991,106,false,0.0,4258.974, 4355.385, 4097.564, 4180.385, 4253.077
1722054294.9996,2024-07-26 21:24:54.999,107,false,0.0,4262.18, 4363.333, 4105.0, 4187.436, 4259.744
1722054295.0074,2024-07-26 21:24:55.007,108,false,0.0,4272.436, 4381.795, 4110.513, 4191.026, 4269.487
1722054295.0153,2024-07-26 21:24:55.015,109,false,0.0,4273.974, 4375.385, 4115.256, 4192.564, 4265.513
1722054295.0231,2024-07-26 21:24:55.023,110,false,0.0,4267.949, 4373.205, 4116.667, 4186.026, 4256.667
1722054295.0309,2024-07-26 21:24:55.030,111,false,0.0,4260.641, 4373.59, 4106.795, 4174.744, 4252.82
1722054295.0387,2024-07-26 21:24:55.038,112,false,0.0,4262.82, 4365.641, 4101.154, 4180.256, 4256.795
1722054295.0465,2024-07-26 21:24:55.046,113,false,0.0,4271.41, 4379.615, 4109.359, 4191.026, 4263.205
1722054295.0543,2024-07-26 21:24:55.054,114,false,0.0,4274.615, 4400.256, 4115.0, 4188.461, 4264.615
1722054295.0621,2024-07-26 21:24:55.062,115,false,0.0,4268.59, 4381.41, 4106.41, 4180.256, 4258.333
1722054295.0699,2024-07-26 21:24:55.069,116,false,0.0,4255.128, 4359.231, 4094.487, 4170.128, 4253.59
1722054295.0778,2024-07-26 21:24:55.077,117,false,0.0,4247.436, 4373.077, 4092.308, 4163.59, 4261.667
1722054295.0856,2024-07-26 21:24:55.085,118,false,0.0,4254.103, 4378.59, 4092.051, 4167.82, 4271.282
1722054295.0934,2024-07-26 21:24:55.093,119,false,0.0,4264.487, 4362.82, 4091.795, 4171.923, 4271.667
1722054295.1012,2024-07-26 21:24:55.101,120,false,0.0,4270.256, 4367.051, 4103.59, 4174.231, 4275.897
1722054295.109,2024-07-26 21:24:55.109,121,false,0.0,4266.795, 4372.692, 4110.256, 4174.359, 4276.923
1722054295.1168,2024-07-26 21:24:55.116,122,false,0.0,4248.974, 4352.949, 4093.59, 4159.359, 4259.359
1722054295.1246,2024-07-26 21:24:55.124,123,false,0.0,4237.564, 4348.333, 4084.103, 4153.077, 4249.872
1722054295.1324,2024-07-26 21:24:55.132,124,false,0.0,4252.18, 4365.897, 4097.82, 4179.103, 4265.128
1722054295.1403,2024-07-26 21:24:55.140,125,false,0.0,4270.641, 4365.0, 4107.308, 4199.103, 4277.18
1722054295.1481,2024-07-26 21:24:55.148,126,false,0.0,4270.769, 4357.564, 4104.103, 4187.692, 4274.744
1722054295.1559,2024-07-26 21:24:55.155,127,false,0.0,4259.231, 4360.385, 4099.872, 4173.718, 4269.744
1722054295.1637,2024-07-26 21:24:55.163,0,false,0.0,4252.692, 4351.795, 4099.103, 4174.487, 4270.256
1722054295.1715,2024-07-26 21:24:55.171,1,false,0.0,4263.974, 4350.641, 4108.077, 4183.974, 4283.974
1722054295.1793,2024-07-26 21:24:55.179,2,false,0.0,4278.718, 4371.154, 4116.41, 4189.872, 4295.385
1722054295.1871,2024-07-26 21:24:55.187,3,false,0.0,4272.564, 4370.128, 4104.487, 4180.128, 4283.59
1722054295.1949,2024-07-26 21:24:55.194,4,false,0.0,4264.615, 4361.282, 4090.0, 4168.974, 4275.128
1722054295.2028,2024-07-26 21:24:55.202,5,false,0.0,4271.795, 4385.0, 4091.282, 4171.667, 4287.82
1722054295.2106,2024-07-26 21:24:55.210,6,false,0.0,4269.103, 4388.077, 4091.154, 4174.615, 4290.385
1722054295.2184,2024-07-26 21:24:55.218,7,false,0.0,4261.795, 4352.436, 4090.256, 4177.308, 4282.308
1722054295.2262,2024-07-26 21:24:55.226,8,false,0.0,4274.359, 4355.513, 4104.231, 4188.077, 4290.897
1722054295.234,2024-07-26 21:24:55.234,9,false,0.0,4284.487, 4390.641, 4117.692, 4192.308, 4299.487
1722054295.2418,2024-07-26 21:24:55.241,10,false,0.0,4277.692, 4393.333, 4116.154, 4187.436, 4289.615
1722054295.2496,2024-07-26 21:24:55.249,11,false,0.0,4271.41, 4377.949, 4107.051, 4181.667, 4279.744
1722054295.2574,2024-07-26 21:24:55.257,12,false,0.0,4261.795, 4365.128, 4093.974, 4170.513, 4274.487
1722054295.2653,2024-07-26 21:24:55.265,13,false,0.0,4248.461, 4350.513, 4084.103, 4162.949, 4264.359
1722054295.2731,2024-07-26 21:24:55.273,14,false,0.0,4250.513, 4353.974, 4085.385, 4165.769, 4260.769
1722054295.2809,2024-07-26 21:24:55.280,15,false,0.0,4260.256, 4365.128, 4089.615, 4164.744, 4265.513
1722054295.2887,2024-07-26 21:24:55.288,16,false,0.0,4260.897, 4362.18, 4093.205, 4162.18, 4262.692
1722054295.2965,2024-07-26 21:24:55.296,17,false,0.0,4255.769, 4366.41, 4097.18, 4165.513, 4258.846
1722054295.3043,2024-07-26 21:24:55.304,18,false,0.0,4250.897, 4370.897, 4094.231, 4166.154, 4266.41
1722054295.3121,2024-07-26 21:24:55.312,19,false,0.0,4253.333, 4355.385, 4094.359, 4172.564, 4275.256
1722054295.3199,2024-07-26 21:24:55.319,20,false,0.0,4263.974, 4355.0, 4106.539, 4188.59, 4277.82
1722054295.3278,2024-07-26 21:24:55.327,21,false,0.0,4267.949, 4377.051, 4109.487, 4189.103, 4276.154
1722054295.3356,2024-07-26 21:24:55.335,22,false,0.0,4258.718, 4380.128, 4098.59, 4173.077, 4266.795
1722054295.3434,2024-07-26 21:24:55.343,23,false,0.0,4244.615, 4369.359, 4095.256, 4165.513, 4257.18
1722054295.3512,2024-07-26 21:24:55.351,24,false,0.0,4238.846, 4370.256, 4101.026, 4166.923, 4262.949
1722054295.359,2024-07-26 21:24:55.359,25,false,0.0,4248.59, 4366.923, 4104.744, 4165.0, 4272.564
1722054295.3668,2024-07-26 21:24:55.366,26,false,0.0,4255.128, 4347.949, 4097.308, 4158.333, 4266.41
1722054295.3746,2024-07-26 21:24:55.374,27,false,0.0,4248.205, 4340.0, 4080.641, 4153.461, 4256.154
1722054295.3824,2024-07-26 21:24:55.382,28,false,0.0,4254.359, 4363.205, 4085.0, 4161.41, 4262.308
1722054295.3903,2024-07-26 21:24:55.390,29,false,0.0,4271.539, 4386.282, 4111.923, 4177.436, 4276.667
1722054295.3981,2024-07-26 21:24:55.398,30,false,0.0,4263.846, 4366.795, 4112.564, 4177.949, 4278.077
1722054295.4059,2024-07-26 21:24:55.405,31,false,0.0,4242.564, 4339.487, 4090.641, 4166.667, 4267.564
1722054295.4137,2024-07-26 21:24:55.413,32,false,0.0,4243.718, 4360.513, 4098.333, 4174.744, 4267.308
1722054295.4215,2024-07-26 21:24:55.421,33,false,0.0,4261.667, 4388.461, 4122.308, 4198.59, 4281.026
1722054295.4293,2024-07-26 21:24:55.429,34,false,0.0,4267.949, 4373.077, 4120.256, 4200.513, 4284.103
1722054295.4371,2024-07-26 21:24:55.437,35,false,0.0,4256.154, 4362.051, 4105.256, 4178.718, 4271.026
1722054295.4449,2024-07-26 21:24:55.444,36,false,0.0,4243.974, 4376.282, 4099.487, 4164.872, 4261.154
1722054295.4528,2024-07-26 21:24:55.452,37,false,0.0,4242.308, 4365.769, 4101.154, 4163.461, 4258.461
1722054295.4606,2024-07-26 21:24:55.460,38,false,0.0,4244.103, 4352.18, 4110.769, 4170.128, 4261.154
1722054295.4684,2024-07-26 21:24:55.468,39,false,0.0,4250.897, 4379.615, 4120.128, 4189.103, 4272.692
1722054295.4762,2024-07-26 21:24:55.476,40,false,0.0,4259.231, 4395.769, 4116.154, 4195.513, 4274.615
1722054295.484,2024-07-26 21:24:55.484,41,false,0.0,4250.641, 4372.949, 4107.051, 4175.256, 4259.744
1722054295.4918,2024-07-26 21:24:55.491,42,false,0.0,4236.282, 4360.385, 4099.744, 4163.846, 4254.744
1722054295.4996,2024-07-26 21:24:55.499,43,false,0.0,4237.436, 4360.256, 4092.821, 4167.692, 4261.923
1722054295.5074,2024-07-26 21:24:55.507,44,false,0.0,4241.923, 4362.436, 4097.82, 4164.615, 4262.436
1722054295.5153,2024-07-26 21:24:55.515,45,false,0.0,4246.539, 4382.949, 4114.872, 4174.744, 4264.359
1722054295.5231,2024-07-26 21:24:55.523,46,false,0.0,4256.154, 4386.539, 4119.872, 4196.539, 4266.923
1722054295.5309,2024-07-26 21:24:55.530,47,false,0.0,4246.667, 4359.872, 4110.897, 4185.0, 4255.128
1722054295.5387,2024-07-26 21:24:55.538,48,false,0.0,4224.231, 4354.359, 4110.0, 4161.282, 4245.256
1722054295.5465,2024-07-26 21:24:55.546,49,false,0.0,4224.359, 4359.615, 4113.718, 4172.051, 4251.026
1722054295.5543,2024-07-26 21:24:55.554,50,false,0.0,4236.282, 4352.436, 4106.282, 4187.436, 4255.897
1722054295.5621,2024-07-26 21:24:55.562,51,false,0.0,4241.923, 4369.872, 4100.897, 4181.026, 4258.846
1722054295.5699,2024-07-26 21:24:55.569,52,false,0.0,4252.564, 4396.026, 4111.539, 4180.769, 4268.974
1722054295.5778,2024-07-26 21:24:55.577,53,false,0.0,4256.667, 4390.513, 4116.539, 4186.667, 4275.128
1722054295.5856,2024-07-26 21:24:55.585,54,false,0.0,4243.077, 4375.385, 4100.897, 4180.641, 4270.128
1722054295.5934,2024-07-26 21:24:55.593,55,false,0.0,4235.513, 4364.103, 4088.718, 4177.564, 4261.154
1722054295.6012,2024-07-26 21:24:55.601,56,false,0.0,4238.333, 4361.154, 4094.487, 4183.974, 4255.0
1722054295.609,2024-07-26 21:24:55.609,57,false,0.0,4237.308, 4378.333, 4100.385, 4184.744, 4256.667
1722054295.6168,2024-07-26 21:24:55.616,58,false,0.0,4237.051, 4382.564, 4102.82, 4179.359, 4261.795
1722054295.6246,2024-07-26 21:24:55.624,59,false,0.0,4232.692, 4366.282, 4108.205, 4175.0, 4258.461
1722054295.6324,2024-07-26 21:24:55.632,60,false,0.0,4215.128, 4362.692, 4104.487, 4172.82, 4249.103
1722054295.6403,2024-07-26 21:24:55.640,61,false,0.0,4203.974, 4360.897, 4093.974, 4175.641, 4245.385
1722054295.6481,2024-07-26 21:24:55.648,62,false,0.0,4208.718, 4361.923, 4095.641, 4180.256, 4245.385
1722054295.6559,2024-07-26 21:24:55.655,63,false,0.0,4214.615, 4376.282, 4102.82, 4183.718, 4243.333
1722054295.6637,2024-07-26 21:24:55.663,64,false,0.0,4224.744, 4366.923, 4107.18, 4192.82, 4250.897
1722054295.6715,2024-07-26 21:24:55.671,65,false,0.0,4244.615, 4359.487, 4115.385, 4204.359, 4270.769
1722054295.6793,2024-07-26 21:24:55.679,66,false,0.0,4255.385, 4392.18, 4117.564, 4205.769, 4276.667
1722054295.6871,2024-07-26 21:24:55.687,67,false,0.0,4245.641, 4393.205, 4105.0, 4193.59, 4257.564
1722054295.6949,2024-07-26 21:24:55.694,68,false,0.0,4227.564, 4356.923, 4091.539, 4171.923, 4239.615
1722054295.7028,2024-07-26 21:24:55.702,69,false,0.0,4218.846, 4361.923, 4087.564, 4157.949, 4239.231
1722054295.7106,2024-07-26 21:24:55.710,70,false,0.0,4227.18, 4371.539, 4094.744, 4171.026, 4247.564
1722054295.7184,2024-07-26 21:24:55.718,71,false,0.0,4239.487, 4352.18, 4105.128, 4193.974, 4254.231
1722054295.7262,2024-07-26 21:24:55.726,72,false,0.0,4237.308, 4363.718, 4099.231, 4195.641, 4250.641
1722054295.734,2024-07-26 21:24:55.734,73,false,0.0,4230.769, 4390.256, 4085.513, 4187.949, 4243.333
1722054295.7418,2024-07-26 21:24:55.741,74,false,0.0,4238.846, 4385.0, 4092.179, 4191.539, 4249.487
1722054295.7496,2024-07-26 21:24:55.749,75,false,0.0,4247.18, 4374.359, 4107.82, 4192.82, 4255.769
1722054295.7574,2024-07-26 21:24:55.757,76,false,0.0,4236.154, 4365.0, 4103.205, 4184.872, 4241.539
1722054295.7653,2024-07-26 21:24:55.765,77,false,0.0,4220.769, 4351.026, 4083.846, 4178.846, 4223.846
1722054295.7731,2024-07-26 21:24:55.773,78,false,0.0,4217.308, 4355.769, 4068.59, 4173.333, 4221.282
1722054295.7809,2024-07-26 21:24:55.780,79,false,0.0,4220.385, 4367.308, 4065.513, 4171.41, 4227.18
1722054295.7887,2024-07-26 21:24:55.788,80,false,0.0,4226.539, 4367.308, 4075.385, 4181.539, 4235.897
1722054295.7965,2024-07-26 21:24:55.796,81,false,0.0,4230.897, 4365.641, 4086.41, 4187.564, 4240.128
1722054295.8043,2024-07-26 21:24:55.804,82,false,0.0,4223.718, 4360.256, 4087.949, 4183.077, 4231.795
1722054295.8121,2024-07-26 21:24:55.812,83,false,0.0,4219.359, 4357.692, 4087.949, 4185.256, 4227.564
1722054295.8199,2024-07-26 21:24:55.819,84,false,0.0,4231.026, 4368.461, 4094.359, 4189.744, 4239.615
1722054295.8278,2024-07-26 21:24:55.827,85,false,0.0,4238.077, 4375.0, 4103.461, 4187.308, 4248.59
1722054295.8356,2024-07-26 21:24:55.835,86,false,0.0,4230.385, 4376.154, 4109.744, 4188.846, 4245.0
1722054295.8434,2024-07-26 21:24:55.843,87,false,0.0,4221.923, 4374.744, 4105.385, 4189.103, 4238.974
1722054295.8512,2024-07-26 21:24:55.851,88,false,0.0,4218.846, 4359.359, 4096.795, 4182.82, 4233.718
1722054295.859,2024-07-26 21:24:55.859,89,false,0.0,4225.385, 4359.615, 4105.513, 4190.641, 4236.923
1722054295.8668,2024-07-26 21:24:55.866,90,false,0.0,4232.436, 4383.846, 4116.282, 4201.026, 4246.923
1722054295.8746,2024-07-26 21:24:55.874,91,false,0.0,4220.897, 4379.359, 4101.667, 4185.641, 4240.385
1722054295.8824,2024-07-26 21:24:55.882,92,false,0.0,4212.949, 4366.154, 4092.821, 4172.308, 4228.333
1722054295.8903,2024-07-26 21:24:55.890,93,false,0.0,4228.077, 4390.641, 4110.513, 4184.872, 4238.205
1722054295.8981,2024-07-26 21:24:55.898,94,false,0.0,4232.949, 4394.615, 4114.231, 4193.077, 4246.41
1722054295.9059,2024-07-26 21:24:55.905,95,false,0.0,4228.077, 4366.154, 4103.205, 4191.667, 4242.82
1722054295.9137,2024-07-26 21:24:55.913,96,false,0.0,4244.744, 4380.897, 4113.718, 4202.436, 4257.82
1722054295.9215,2024-07-26 21:24:55.921,97,false,0.0,4254.872, 4408.333, 4125.0, 4208.59, 4269.872
1722054295.9293,2024-07-26 21:24:55.929,98,false,0.0,4239.872, 4387.564, 4117.436, 4198.974, 4253.718
1722054295.9371,2024-07-26 21:24:55.937,99,false,0.0,4238.205, 4367.82, 4113.333, 4194.615, 4247.949
1722054295.9449,2024-07-26 21:24:55.944,100,false,0.0,4248.59, 4371.282, 4107.436, 4193.077, 4258.718
1722054295.9528,2024-07-26 21:24:55.952,101,false,0.0,4242.308, 4368.59, 4095.641, 4184.359, 4252.564
1722054295.9606,2024-07-26 21:24:55.960,102,false,0.0,4232.564, 4375.769, 4100.0, 4184.231, 4242.82
1722054295.9684,2024-07-26 21:24:55.968,103,false,0.0,4230.897, 4386.282, 4105.769, 4188.718, 4242.949
1722054295.9762,2024-07-26 21:24:55.976,104,false,0.0,4227.564, 4377.436, 4097.308, 4181.026, 4239.744
1722054295.984,2024-07-26 21:24:55.984,105,false,0.0,4226.154, 4377.051, 4095.513, 4177.308, 4243.333
1722054295.9918,2024-07-26 21:24:55.991,106,false,0.0,4231.539, 4383.461, 4098.205, 4185.513, 4258.974
1722054295.9996,2024-07-26 21:24:55.999,107,false,0.0,4239.615, 4371.923, 4092.692, 4186.282, 4267.18
1722054296.0074,2024-07-26 21:24:56.007,108,false,0.0,4243.59, 4365.769, 4090.513, 4179.744, 4260.0
1722054296.0153,2024-07-26 21:24:56.015,109,false,0.0,4238.718, 4370.769, 4093.718, 4178.846, 4247.82
1722054296.0231,2024-07-26 21:24:56.023,110,false,0.0,4237.051, 4367.308, 4100.513, 4181.154, 4248.846
1722054296.0309,2024-07-26 21:24:56.030,111,false,0.0,4244.359, 4365.0, 4110.0, 4182.18, 4261.154
1722054296.0387,2024-07-26 21:24:56.038,112,false,0.0,4244.103, 4368.333, 4108.333, 4182.564, 4258.59
1722054296.0465,2024-07-26 21:24:56.046,113,false,0.0,4237.18, 4372.82, 4103.077, 4183.59, 4250.385
1722054296.0543,2024-07-26 21:24:56.054,114,false,0.0,4236.795, 4382.308, 4108.974, 4188.718, 4256.282
1722054296.0621,2024-07-26 21:24:56.062,115,false,0.0,4238.205, 4385.769, 4111.154, 4191.667, 4252.949
1722054296.0699,2024-07-26 21:24:56.069,116,false,0.0,4240.769, 4379.103, 4108.461, 4187.82, 4242.051
1722054296.0778,2024-07-26 21:24:56.077,117,false,0.0,4243.59, 4372.949, 4109.231, 4186.539, 4247.692
1722054296.0856,2024-07-26 21:24:56.085,118,false,0.0,4234.487, 4367.18, 4099.744, 4186.923, 4247.436
1722054296.0934,2024-07-26 21:24:56.093,119,false,0.0,4223.59, 4365.385, 4086.41, 4182.308, 4233.333
1722054296.1012,2024-07-26 21:24:56.101,120,false,0.0,4226.795, 4368.333, 4087.821, 4182.436, 4236.026
1722054296.109,2024-07-26 21:24:56.109,121,false,0.0,4234.615, 4366.923, 4095.128, 4190.0, 4247.564
1722054296.1168,2024-07-26 21:24:56.116,122,false,0.0,4238.718, 4368.333, 4105.385, 4191.026, 4249.231
1722054296.1246,2024-07-26 21:24:56.124,123,false,0.0,4241.154, 4368.59, 4116.795, 4187.436, 4251.282
1722054296.1324,2024-07-26 21:24:56.132,124,false,0.0,4240.769, 4358.205, 4117.436, 4190.897, 4255.897
1722054296.1403,2024-07-26 21:24:56.140,125,false,0.0,4240.0, 4356.667, 4116.282, 4196.026, 4260.128
1722054296.1481,2024-07-26 21:24:56.148,126,false,0.0,4238.718, 4365.128, 4117.564, 4192.564, 4262.564
1722054296.1559,2024-07-26 21:24:56.155,127,false,0.0,4234.615, 4366.923, 4112.82, 4183.974, 4254.231
1722054296.1637,2024-07-26 21:24:56.163,0,false,0.0,4231.795, 4372.18, 4118.461, 4179.103, 4244.744
1722054296.1715,2024-07-26 21:24:56.171,1,false,0.0,4232.18, 4377.949, 4133.205, 4184.231, 4247.949
1722054296.1793,2024-07-26 21:24:56.179,2,false,0.0,4235.641, 4374.744, 4133.333, 4196.026, 4254.359
1722054296.1871,2024-07-26 21:24:56.187,3,false,0.0,4240.769, 4378.205, 4130.769, 4201.154, 4256.154
1722054296.1949,2024-07-26 21:24:56.194,4,false,0.0,4238.205, 4382.308, 4130.385, 4195.0, 4252.949
1722054296.2028,2024-07-26 21:24:56.202,5,false,0.0,4232.18, 4374.872, 4116.41, 4187.692, 4247.18
1722054296.2106,2024-07-26 21:24:56.210,6,false,0.0,4235.128, 4369.231, 4109.359, 4185.769, 4250.897
1722054296.2184,2024-07-26 21:24:56.218,7,false,0.0,4237.436, 4358.461, 4118.461, 4185.513, 4256.154
1722054296.2262,2024-07-26 21:24:56.226,8,false,0.0,4233.461, 4342.564, 4118.461, 4184.487, 4247.692
1722054296.234,2024-07-26 21:24:56.234,9,false,0.0,4233.974, 4351.795, 4116.282, 4184.872, 4242.18
1722054296.2418,2024-07-26 21:24:56.241,10,false,0.0,4233.718, 4373.59, 4123.077, 4186.026, 4245.256
1722054296.2496,2024-07-26 21:24:56.249,11,false,0.0,4222.692, 4373.205, 4119.359, 4182.564, 4235.128
1722054296.2574,2024-07-26 21:24:56.257,12,false,0.0,4207.436, 4362.82, 4105.513, 4172.82, 4216.41
1722054296.2653,2024-07-26 21:24:56.265,13,false,0.0,4198.333, 4363.846, 4097.308, 4166.795, 4211.539
1722054296.2731,2024-07-26 21:24:56.273,14,false,0.0,4202.308, 4371.667, 4096.923, 4175.128, 4224.359
1722054296.2809,2024-07-26 21:24:56.280,15,false,0.0,4217.308, 4374.615, 4104.872, 4191.923, 4243.205
1722054296.2887,2024-07-26 21:24:56.288,16,false,0.0,4228.846, 4369.103, 4112.949, 4201.41, 4250.513
1722054296.2965,2024-07-26 21:24:56.296,17,false,0.0,4230.897, 4369.103, 4116.795, 4200.256, 4249.103
1722054296.3043,2024-07-26 21:24:56.304,18,false,0.0,4231.282, 4380.0, 4125.128, 4199.487, 4258.205
1722054296.3121,2024-07-26 21:24:56.312,19,false,0.0,4230.256, 4380.128, 4124.872, 4197.564, 4262.82
1722054296.3199,2024-07-26 21:24:56.319,20,false,0.0,4220.128, 4362.436, 4107.692, 4184.231, 4246.923
1722054296.3278,2024-07-26 21:24:56.327,21,false,0.0,4208.974, 4352.564, 4103.333, 4177.949, 4242.308
1722054296.3356,2024-07-26 21:24:56.335,22,false,0.0,4211.667, 4365.128, 4111.539, 4192.82, 4253.461
1722054296.3434,2024-07-26 21:24:56.343,23,false,0.0,4214.359, 4376.539, 4099.744, 4193.974, 4241.667
1722054296.3512,2024-07-26 21:24:56.351,24,false,0.0,4198.974, 4363.974, 4082.051, 4170.897, 4220.256
1722054296.359,2024-07-26 21:24:56.359,25,false,0.0,4189.487, 4351.026, 4085.128, 4167.436, 4226.41
1722054296.3668,2024-07-26 21:24:56.366,26,false,0.0,4196.539, 4361.667, 4089.487, 4179.103, 4236.539
1722054296.3746,2024-07-26 21:24:56.374,27,false,0.0,4192.82, 4369.103, 4079.231, 4170.641, 4229.872
1722054296.3824,2024-07-26 21:24:56.382,28,false,0.0,4189.103, 4357.949, 4072.308, 4166.923, 4232.308
1722054296.3903,2024-07-26 21:24:56.390,29,false,0.0,4206.795, 4355.513, 4076.795, 4185.513, 4247.051
1722054296.3981,2024-07-26 21:24:56.398,30,false,0.0,4214.103, 4364.487, 4080.513, 4191.41, 4250.641
1722054296.4059,2024-07-26 21:24:56.405,31,false,0.0,4200.513, 4357.051, 4077.436, 4178.077, 4244.872
1722054296.4137,2024-07-26 21:24:56.413,32,false,0.0,4194.487, 4338.846, 4073.846, 4167.308, 4241.41
1722054296.4215,2024-07-26 21:24:56.421,33,false,0.0,4194.103, 4342.18, 4076.539, 4168.077, 4245.897
1722054296.4293,2024-07-26 21:24:56.429,34,false,0.0,4194.615, 4362.949, 4082.436, 4182.18, 4255.0
1722054296.4371,2024-07-26 21:24:56.437,35,false,0.0,4199.615, 4363.077, 4079.487, 4185.385, 4247.692
1722054296.4449,2024-07-26 21:24:56.444,36,false,0.0,4190.128, 4343.205, 4069.231, 4164.487, 4225.256
1722054296.4528,2024-07-26 21:24:56.452,37,false,0.0,4182.051, 4346.282, 4073.59, 4161.539, 4225.641
1722054296.4606,2024-07-26 21:24:56.460,38,false,0.0,4205.513, 4376.795, 4097.436, 4184.487, 4253.718
1722054296.4684,2024-07-26 21:24:56.468,39,false,0.0,4222.308, 4389.744, 4111.154, 4188.846, 4271.539
1722054296.4762,2024-07-26 21:24:56.476,40,false,0.0,4208.846, 4368.846, 4102.564, 4180.385, 4267.692
1722054296.484,2024-07-26 21:24:56.484,41,false,0.0,4208.974, 4354.872, 4097.692, 4186.923, 4268.59
1722054296.4918,2024-07-26 21:24:56.491,42,false,0.0,4228.333, 4373.461, 4107.308, 4196.41, 4288.077
1722054296.4996,2024-07-26 21:24:56.499,43,false,0.0,4232.436, 4381.539, 4110.897, 4197.692, 4301.923
1722054296.5074,2024-07-26 21:24:56.507,44,false,0.0,4220.641, 4354.359, 4104.359, 4189.615, 4286.795
1722054296.5153,2024-07-26 21:24:56.515,45,false,0.0,4206.667, 4345.513, 4102.051, 4176.282, 4265.128
1722054296.5231,2024-07-26 21:24:56.523,46,false,0.0,4197.949, 4369.487, 4104.487, 4178.718, 4262.18
1722054296.5309,2024-07-26 21:24:56.530,47,false,0.0,4203.461, 4373.205, 4107.308, 4191.026, 4267.18
1722054296.5387,2024-07-26 21:24:56.538,48,false,0.0,4218.846, 4366.667, 4111.923, 4192.692, 4283.59
1722054296.5465,2024-07-26 21:24:56.546,49,false,0.0,4235.769, 4383.846, 4111.41, 4197.051, 4317.308
1722054296.5543,2024-07-26 21:24:56.554,50,false,0.0,4251.154, 4388.59, 4106.539, 4204.872, 4337.949
1722054296.5621,2024-07-26 21:24:56.562,51,false,0.0,4261.154, 4371.41, 4115.897, 4203.718, 4348.205
1722054296.5699,2024-07-26 21:24:56.569,52,false,0.0,4275.769, 4369.359, 4132.949, 4210.0, 4384.487
1722054296.5778,2024-07-26 21:24:56.577,53,false,0.0,4297.82, 4367.692, 4131.923, 4219.744, 4420.769
1722054296.5856,2024-07-26 21:24:56.585,54,false,0.0,4302.692, 4350.385, 4123.974, 4215.769, 4418.718
1722054296.5934,2024-07-26 21:24:56.593,55,false,0.0,4285.0, 4347.692, 4127.564, 4214.103, 4402.564
1722054296.6012,2024-07-26 21:24:56.601,56,false,0.0,4269.615, 4352.949, 4126.795, 4213.846, 4390.128
1722054296.609,2024-07-26 21:24:56.609,57,false,0.0,4264.744, 4342.308, 4119.231, 4206.539, 4379.103
1722054296.6168,2024-07-26 21:24:56.616,58,false,0.0,4266.154, 4344.359, 4121.923, 4214.615, 4383.974
1722054296.6246,2024-07-26 21:24:56.624,59,false,0.0,4268.205, 4368.974, 4123.974, 4224.359, 4392.436
1722054296.6324,2024-07-26 21:24:56.632,60,false,0.0,4260.385, 4371.539, 4116.41, 4210.769, 4376.282
1722054296.6403,2024-07-26 21:24:56.640,61,false,0.0,4245.897, 4350.128, 4111.923, 4204.487, 4352.18
1722054296.6481,2024-07-26 21:24:56.648,62,false,0.0,4235.256, 4346.026, 4107.949, 4211.795, 4339.744
1722054296.6559,2024-07-26 21:24:56.655,63,false,0.0,4226.282, 4348.974, 4102.051, 4204.872, 4330.128
1722054296.6637,2024-07-26 21:24:56.663,64,false,0.0,4220.128, 4341.154, 4107.82, 4198.974, 4322.18
1722054296.6715,2024-07-26 21:24:56.671,65,false,0.0,4216.923, 4352.692, 4118.59, 4200.513, 4317.436
1722054296.6793,2024-07-26 21:24:56.679,66,false,0.0,4209.231, 4372.949, 4118.59, 4192.051, 4312.18
1722054296.6871,2024-07-26 21:24:56.687,67,false,0.0,4203.974, 4358.846, 4110.385, 4189.744, 4310.0
1722054296.6949,2024-07-26 21:24:56.694,68,false,0.0,4206.667, 4340.385, 4101.282, 4198.333, 4304.872
1722054296.7028,2024-07-26 21:24:56.702,69,false,0.0,4203.461, 4346.923, 4097.564, 4196.282, 4290.128
1722054296.7106,2024-07-26 21:24:56.710,70,false,0.0,4196.154, 4347.308, 4100.385, 4193.718, 4279.359
1722054296.7184,2024-07-26 21:24:56.718,71,false,0.0,4195.641, 4344.103, 4100.256, 4199.487, 4278.333
1722054296.7262,2024-07-26 21:24:56.726,72,false,0.0,4192.949, 4350.0, 4101.026, 4200.256, 4279.103
1722054296.734,2024-07-26 21:24:56.734,73,false,0.0,4187.18, 4346.667, 4112.436, 4201.154, 4279.872
1722054296.7418,2024-07-26 21:24:56.741,74,false,0.0,4189.872, 4352.308, 4123.846, 4203.461, 4276.026
1722054296.7496,2024-07-26 21:24:56.749,75,false,0.0,4190.513, 4371.154, 4121.923, 4192.949, 4264.615
1722054296.7574,2024-07-26 21:24:56.757,76,false,0.0,4181.154, 4358.59, 4109.615, 4180.0, 4257.82
1722054296.7653,2024-07-26 21:24:56.765,77,false,0.0,4176.923, 4335.897, 4098.205, 4182.82, 4257.692
1722054296.7731,2024-07-26 21:24:56.773,78,false,0.0,4183.205, 4342.051, 4097.692, 4192.436, 4253.333
1722054296.7809,2024-07-26 21:24:56.780,79,false,0.0,4190.769, 4348.205, 4105.769, 4194.359, 4253.333
1722054296.7887,2024-07-26 21:24:56.788,80,false,0.0,4196.795, 4347.82, 4113.461, 4190.513, 4265.641
1722054296.7965,2024-07-26 21:24:56.796,81,false,0.0,4196.154, 4348.974, 4116.282, 4189.231, 4268.59
1722054296.8043,2024-07-26 21:24:56.804,82,false,0.0,4186.923, 4334.872, 4108.974, 4187.949, 4252.308
1722054296.8121,2024-07-26 21:24:56.812,83,false,0.0,4181.41, 4335.897, 4097.18, 4180.0, 4240.769
1722054296.8199,2024-07-26 21:24:56.819,84,false,0.0,4183.59, 4360.128, 4097.308, 4174.359, 4243.846
1722054296.8278,2024-07-26 21:24:56.827,85,false,0.0,4186.026, 4355.385, 4108.718, 4182.18, 4249.615
