Time,Timestamp,Counter,Interpolated,Contact Quality,AF3,T7,Pz,T8,AF4
1722050305.6518,2024-07-26 20:18:25.651,99,false,0.0,4269.359, 4359.487, 4101.41, 4183.718, 4325.769
1722050305.6596,2024-07-26 20:18:25.659,100,false,0.0,4273.718, 4368.461, 4114.103, 4195.769, 4326.282
1722050305.6674,2024-07-26 20:18:25.667,101,false,0.0,4276.539, 4382.18, 4117.436, 4200.641, 4323.461
1722050305.6752,2024-07-26 20:18:25.675,102,false,0.0,4260.769, 4358.59, 4110.641, 4179.872, 4298.59
1722050305.683,2024-07-26 20:18:25.683,103,false,0.0,4255.897, 4346.923, 4122.051, 4179.359, 4292.18
1722050305.6909,2024-07-26 20:18:25.690,104,false,0.0,4270.897, 4373.077, 4142.564, 4200.128, 4315.385
1722050305.6987,2024-07-26 20:18:25.698,105,false,0.0,4277.18, 4369.744, 4141.154, 4199.359, 4328.718
1722050305.7065,2024-07-26 20:18:25.706,106,false,0.0,4272.564, 4344.231, 4124.487, 4191.923, 4330.897
1722050305.7143,2024-07-26 20:18:25.714,107,false,0.0,4272.949, 4357.308, 4122.82, 4201.41, 4336.41
1722050305.7221,2024-07-26 20:18:25.722,108,false,0.0,4273.718, 4369.231, 4132.436, 4206.154, 4339.872
1722050305.7299,2024-07-26 20:18:25.729,109,false,0.0,4272.692, 4351.026, 4130.0, 4202.564, 4351.795
1722050305.7377,2024-07-26 20:18:25.737,110,false,0.0,4275.641, 4354.487, 4121.282, 4205.641, 4365.256
1722050305.7455,2024-07-26 20:18:25.745,111,false,0.0,4275.897, 4369.615, 4119.231, 4206.923, 4352.308
1722050305.7534,2024-07-26 20:18:25.753,112,false,0.0,4274.103, 4355.641, 4115.0, 4200.0, 4335.385
1722050305.7612,2024-07-26 20:18:25.761,113,false,0.0,4275.897, 4345.897, 4107.82, 4191.795, 4339.744
1722050305.769,2024-07-26 20:18:25.769,114,false,0.0,4273.974, 4357.82, 4112.82, 4185.513, 4339.744
1722050305.7768,2024-07-26 20:18:25.776,115,false,0.0,4273.077, 4361.539, 4132.051, 4188.718, 4339.103
1722050305.7846,2024-07-26 20:18:25.784,116,false,0.0,4282.308, 4357.051, 4147.949, 4201.154, 4356.026
1722050305.7924,2024-07-26 20:18:25.792,117,false,0.0,4281.539, 4354.231, 4140.256, 4200.0, 4353.718
1722050305.8002,2024-07-26 20:18:25.800,118,false,0.0,4258.205, 4349.231, 4116.282, 4180.641, 4321.41
1722050305.808,2024-07-26 20:18:25.808,119,false,0.0,4239.359, 4353.333, 4108.205, 4170.0, 4306.282
1722050305.8159,2024-07-26 20:18:25.815,120,false,0.0,4239.744, 4361.026, 4117.18, 4179.359, 4314.103
1722050305.8237,2024-07-26 20:18:25.823,121,false,0.0,4244.615, 4347.692, 4117.18, 4192.308, 4318.461
1722050305.8315,2024-07-26 20:18:25.831,122,false,0.0,4250.256, 4335.256, 4111.154, 4197.308, 4321.282
1722050305.8393,2024-07-26 20:18:25.839,123,false,0.0,4259.487, 4355.385, 4115.385, 4197.949, 4326.923
1722050305.8471,2024-07-26 20:18:25.847,124,false,0.0,4261.026, 4375.128, 4120.769, 4198.718, 4327.051
1722050305.8549,2024-07-26 20:18:25.854,125,false,0.0,4255.897, 4361.41, 4118.59, 4200.256, 4324.103
1722050305.8627,2024-07-26 20:18:25.862,126,false,0.0,4261.282, 4348.846, 4119.231, 4203.718, 4328.205
1722050305.8705,2024-07-26 20:18:25.870,127,false,0.0,4273.59, 4361.667, 4126.795, 4207.82, 4342.308
1722050305.8784,2024-07-26 20:18:25.878,0,false,0.0,4271.539, 4367.692, 4128.974, 4205.897, 4347.18
1722050305.8862,2024-07-26 20:18:25.886,1,false,0.0,4260.641, 4359.615, 4121.923, 4199.487, 4333.077
1722050305.894,2024-07-26 20:18:25.894,2,false,0.0,4259.872, 4364.872, 4121.539, 4199.231, 4327.692
1722050305.9018,2024-07-26 20:18:25.901,3,false,0.0,4258.461, 4375.256, 4130.0, 4200.0, 4335.513
1722050305.9096,2024-07-26 20:18:25.909,4,false,0.0,4247.308, 4372.949, 4131.41, 4194.231, 4333.846
1722050305.9174,2024-07-26 20:18:25.917,5,false,0.0,4245.0, 4369.744, 4130.769, 4194.744, 4333.205
1722050305.9252,2024-07-26 20:18:25.925,6,false,0.0,4244.744, 4361.282, 4128.333, 4198.59, 4335.256
1722050305.933,2024-07-26 20:18:25.933,7,false,0.0,4228.333, 4336.923, 4107.18, 4188.59, 4316.667
1722050305.9409,2024-07-26 20:18:25.940,8,false,0.0,4227.18, 4331.923, 4092.564, 4185.128, 4306.026
1722050305.9487,2024-07-26 20:18:25.948,9,false,0.0,4256.282, 4364.487, 4113.846, 4203.846, 4327.949
1722050305.9565,2024-07-26 20:18:25.956,10,false,0.0,4271.41, 4387.564, 4133.205, 4215.256, 4341.667
1722050305.9643,2024-07-26 20:18:25.964,11,false,0.0,4262.436, 4375.641, 4126.026, 4210.256, 4336.41
1722050305.9721,2024-07-26 20:18:25.972,12,false,0.0,4259.359, 4361.923, 4125.769, 4206.795, 4340.769
1722050305.9799,2024-07-26 20:18:25.979,13,false,0.0,4261.539, 4364.744, 4137.564, 4208.59, 4347.436
1722050305.9877,2024-07-26 20:18:25.987,14,false,0.0,4263.974, 4372.436, 4140.385, 4219.103, 4346.667
1722050305.9955,2024-07-26 20:18:25.995,15,false,0.0,4270.385, 4377.18, 4139.615, 4226.667, 4344.872
1722050306.0034,2024-07-26 20:18:26.003,16,false,0.0,4263.205, 4370.513, 4137.564, 4208.718, 4334.231
1722050306.0112,2024-07-26 20:18:26.011,17,false,0.0,4245.0, 4356.282, 4127.436, 4186.795, 4318.718
1722050306.019,2024-07-26 20:18:26.019,18,false,0.0,4242.82, 4360.769, 4121.923, 4184.744, 4316.282
1722050306.0268,2024-07-26 20:18:26.026,19,false,0.0,4250.0, 4372.82, 4125.128, 4182.949, 4320.513
1722050306.0346,2024-07-26 20:18:26.034,20,false,0.0,4248.59, 4355.897, 4120.128, 4175.769, 4315.128
1722050306.0424,2024-07-26 20:18:26.042,21,false,0.0,4250.128, 4339.103, 4112.692, 4176.667, 4306.667
1722050306.0502,2024-07-26 20:18:26.050,22,false,0.0,4264.615, 4360.256, 4123.333, 4182.18, 4316.41
1722050306.058,2024-07-26 20:18:26.058,23,false,0.0,4276.923, 4372.051, 4136.539, 4190.769, 4336.026
1722050306.0659,2024-07-26 20:18:26.065,24,false,0.0,4273.461, 4351.795, 4133.205, 4201.026, 4336.41
1722050306.0737,2024-07-26 20:18:26.073,25,false,0.0,4266.923, 4356.667, 4135.641, 4208.974, 4330.385
1722050306.0815,2024-07-26 20:18:26.081,26,false,0.0,4268.846, 4382.436, 4147.564, 4219.872, 4332.308
1722050306.0893,2024-07-26 20:18:26.089,27,false,0.0,4267.051, 4375.641, 4140.128, 4221.667, 4314.487
1722050306.0971,2024-07-26 20:18:26.097,28,false,0.0,4264.359, 4362.564, 4128.077, 4206.154, 4294.103
1722050306.1049,2024-07-26 20:18:26.104,29,false,0.0,4269.615, 4371.795, 4132.692, 4195.256, 4305.128
1722050306.1127,2024-07-26 20:18:26.112,30,false,0.0,4261.667, 4368.333, 4125.385, 4186.41, 4303.846
1722050306.1205,2024-07-26 20:18:26.120,31,false,0.0,4243.59, 4353.974, 4110.641, 4173.718, 4281.539
1722050306.1284,2024-07-26 20:18:26.128,32,false,0.0,4250.641, 4358.846, 4121.539, 4187.82, 4293.205
1722050306.1362,2024-07-26 20:18:26.136,33,false,0.0,4267.692, 4363.59, 4135.256, 4215.897, 4315.0
1722050306.144,2024-07-26 20:18:26.144,34,false,0.0,4263.205, 4359.487, 4133.461, 4217.051, 4306.41
1722050306.1518,2024-07-26 20:18:26.151,35,false,0.0,4253.461, 4367.308, 4136.667, 4212.692, 4300.897
1722050306.1596,2024-07-26 20:18:26.159,36,false,0.0,4252.564, 4372.692, 4134.615, 4218.59, 4304.487
1722050306.1674,2024-07-26 20:18:26.167,37,false,0.0,4253.205, 4360.769, 4122.692, 4211.795, 4300.769
1722050306.1752,2024-07-26 20:18:26.175,38,false,0.0,4252.051, 4353.333, 4124.359, 4200.513, 4299.615
1722050306.183,2024-07-26 20:18:26.183,39,false,0.0,4238.077, 4357.436, 4129.231, 4192.436, 4288.333
1722050306.1909,2024-07-26 20:18:26.190,40,false,0.0,4221.41, 4359.744, 4127.82, 4181.154, 4274.615
1722050306.1987,2024-07-26 20:18:26.198,41,false,0.0,4230.897, 4357.564, 4136.154, 4190.256, 4292.18
1722050306.2065,2024-07-26 20:18:26.206,42,false,0.0,4243.333, 4346.667, 4132.308, 4213.077, 4305.0
1722050306.2143,2024-07-26 20:18:26.214,43,false,0.0,4228.718, 4335.0, 4102.949, 4211.539, 4285.513
1722050306.2221,2024-07-26 20:18:26.222,44,false,0.0,4221.795, 4351.539, 4091.026, 4203.974, 4279.744
1722050306.2299,2024-07-26 20:18:26.229,45,false,0.0,4240.897, 4381.282, 4104.615, 4211.667, 4289.744
1722050306.2377,2024-07-26 20:18:26.237,46,false,0.0,4251.026, 4372.18, 4108.205, 4209.872, 4285.513
1722050306.2455,2024-07-26 20:18:26.245,47,false,0.0,4246.795, 4348.333, 4107.18, 4198.333, 4282.18
1722050306.2534,2024-07-26 20:18:26.253,48,false,0.0,4248.846, 4367.18, 4120.641, 4194.359, 4285.256
1722050306.2612,2024-07-26 20:18:26.261,49,false,0.0,4250.641, 4383.333, 4131.41, 4192.308, 4288.333
1722050306.269,2024-07-26 20:18:26.269,50,false,0.0,4246.539, 4347.308, 4124.231, 4194.103, 4297.308
1722050306.2768,2024-07-26 20:18:26.276,51,false,0.0,4243.974, 4321.795, 4112.564, 4198.461, 4294.872
1722050306.2846,2024-07-26 20:18:26.284,52,false,0.0,4241.282, 4339.231, 4109.231, 4196.282, 4280.0
1722050306.2924,2024-07-26 20:18:26.292,53,false,0.0,4239.744, 4353.333, 4111.154, 4200.385, 4280.897
1722050306.3002,2024-07-26 20:18:26.300,54,false,0.0,4242.436, 4363.59, 4114.615, 4211.026, 4285.641
1722050306.308,2024-07-26 20:18:26.308,55,false,0.0,4237.308, 4372.051, 4116.026, 4205.769, 4277.692
1722050306.3159,2024-07-26 20:18:26.315,56,false,0.0,4226.41, 4353.846, 4110.385, 4196.282, 4277.564
1722050306.3237,2024-07-26 20:18:26.323,57,false,0.0,4234.103, 4352.18, 4112.051, 4205.128, 4289.615
1722050306.3315,2024-07-26 20:18:26.331,58,false,0.0,4250.769, 4381.539, 4122.564, 4213.077, 4296.539
1722050306.3393,2024-07-26 20:18:26.339,59,false,0.0,4239.103, 4368.846, 4107.692, 4198.59, 4283.974
1722050306.3471,2024-07-26 20:18:26.347,60,false,0.0,4208.205, 4331.923, 4076.41, 4181.923, 4256.539
1722050306.3549,2024-07-26 20:18:26.354,61,false,0.0,4199.359, 4342.308, 4076.282, 4187.308, 4249.359
1722050306.3627,2024-07-26 20:18:26.362,62,false,0.0,4208.59, 4360.769, 4089.359, 4201.795, 4265.897
1722050306.3705,2024-07-26 20:18:26.370,63,false,0.0,4211.795, 4352.18, 4086.539, 4208.205, 4269.872
1722050306.3784,2024-07-26 20:18:26.378,64,false,0.0,4215.385, 4349.359, 4098.974, 4216.026, 4271.795
1722050306.3862,2024-07-26 20:18:26.386,65,false,0.0,4219.231, 4347.564, 4114.487, 4219.872, 4283.718
1722050306.394,2024-07-26 20:18:26.394,66,false,0.0,4206.154, 4340.769, 4094.487, 4201.282, 4272.436
1722050306.4018,2024-07-26 20:18:26.401,67,false,0.0,4188.846, 4345.641, 4077.308, 4185.128, 4255.256
1722050306.4096,2024-07-26 20:18:26.409,68,false,0.0,4187.051, 4340.256, 4085.769, 4195.128, 4263.333
1722050306.4174,2024-07-26 20:18:26.417,69,false,0.0,4187.82, 4321.026, 4081.667, 4201.539, 4262.18
1722050306.4252,2024-07-26 20:18:26.425,70,false,0.0,4185.513, 4316.026, 4075.385, 4196.41, 4250.769
1722050306.433,2024-07-26 20:18:26.433,71,false,0.0,4195.385, 4324.103, 4089.231, 4203.461, 4261.41
1722050306.4409,2024-07-26 20:18:26.440,72,false,0.0,4207.308, 4345.641, 4092.564, 4203.974, 4262.564
1722050306.4487,2024-07-26 20:18:26.448,73,false,0.0,4200.385, 4366.41, 4080.128, 4181.923, 4241.282
1722050306.4565,2024-07-26 20:18:26.456,74,false,0.0,4188.205, 4346.795, 4074.231, 4171.154, 4236.282
1722050306.4643,2024-07-26 20:18:26.464,75,false,0.0,4188.718, 4322.308, 4073.077, 4178.59, 4239.744
1722050306.4721,2024-07-26 20:18:26.472,76,false,0.0,4193.718, 4339.103, 4080.128, 4184.103, 4239.359
1722050306.4799,2024-07-26 20:18:26.479,77,false,0.0,4201.795, 4349.359, 4097.051, 4196.026, 4256.539
1722050306.4877,2024-07-26 20:18:26.487,78,false,0.0,4217.051, 4340.513, 4101.026, 4209.359, 4270.128
1722050306.4955,2024-07-26 20:18:26.495,79,false,0.0,4216.539, 4351.795, 4087.949, 4197.051, 4252.308
1722050306.5034,2024-07-26 20:18:26.503,80,false,0.0,4195.897, 4355.641, 4077.308, 4178.077, 4232.692
1722050306.5112,2024-07-26 20:18:26.511,81,false,0.0,4192.308, 4342.82, 4081.795, 4184.615, 4233.718
1722050306.519,2024-07-26 20:18:26.519,82,false,0.0,4209.231, 4348.974, 4097.308, 4197.308, 4240.0
1722050306.5268,2024-07-26 20:18:26.526,83,false,0.0,4216.282, 4351.539, 4100.897, 4197.308, 4240.385
1722050306.5346,2024-07-26 20:18:26.534,84,false,0.0,4220.0, 4348.846, 4094.615, 4201.539, 4237.82
1722050306.5424,2024-07-26 20:18:26.542,85,false,0.0,4225.513, 4369.615, 4105.897, 4205.641, 4235.897
1722050306.5502,2024-07-26 20:18:26.550,86,false,0.0,4210.769, 4364.872, 4113.718, 4188.333, 4227.18
1722050306.558,2024-07-26 20:18:26.558,87,false,0.0,4197.564, 4329.487, 4094.615, 4170.256, 4211.667
1722050306.5659,2024-07-26 20:18:26.565,88,false,0.0,4209.744, 4332.82, 4088.59, 4175.769, 4212.949
1722050306.5737,2024-07-26 20:18:26.573,89,false,0.0,4208.077, 4346.539, 4098.59, 4183.846, 4224.615
1722050306.5815,2024-07-26 20:18:26.581,90,false,0.0,4187.564, 4337.051, 4084.615, 4183.974, 4216.41
1722050306.5893,2024-07-26 20:18:26.589,91,false,0.0,4192.051, 4351.923, 4072.564, 4192.82, 4206.923
1722050306.5971,2024-07-26 20:18:26.597,92,false,0.0,4203.461, 4356.795, 4085.769, 4199.615, 4215.256
1722050306.6049,2024-07-26 20:18:26.604,93,false,0.0,4195.256, 4317.564, 4086.923, 4192.564, 4213.846
1722050306.6127,2024-07-26 20:18:26.612,94,false,0.0,4199.231, 4320.0, 4082.308, 4192.436, 4208.59
1722050306.6205,2024-07-26 20:18:26.620,95,false,0.0,4210.256, 4361.539, 4099.231, 4197.82, 4223.461
1722050306.6284,2024-07-26 20:18:26.628,96,false,0.0,4195.641, 4354.615, 4106.282, 4192.051, 4226.282
1722050306.6362,2024-07-26 20:18:26.636,97,false,0.0,4180.897, 4331.539, 4094.359, 4192.18, 4205.769
1722050306.644,2024-07-26 20:18:26.644,98,false,0.0,4187.436, 4337.692, 4093.205, 4204.872, 4206.795
1722050306.6518,2024-07-26 20:18:26.651,99,false,0.0,4195.641, 4342.051, 4093.718, 4209.103, 4229.103
1722050306.6596,2024-07-26 20:18:26.659,100,false,0.0,4201.923, 4347.436, 4085.769, 4203.461, 4233.59
1722050306.6674,2024-07-26 20:18:26.667,101,false,0.0,4204.231, 4361.282, 4088.59, 4194.103, 4225.897
1722050306.6752,2024-07-26 20:18:26.675,102,false,0.0,4195.897, 4361.923, 4096.923, 4182.18, 4225.385
1722050306.683,2024-07-26 20:18:26.683,103,false,0.0,4199.487, 4363.974, 4101.795, 4186.923, 4229.744
1722050306.6909,2024-07-26 20:18:26.690,104,false,0.0,4218.974, 4371.026, 4114.615, 4210.256, 4241.539
1722050306.6987,2024-07-26 20:18:26.698,105,false,0.0,4220.385, 4362.18, 4119.231, 4221.923, 4253.974
1722050306.7065,2024-07-26 20:18:26.706,106,false,0.0,4207.692, 4357.308, 4102.18, 4213.333, 4248.333
1722050306.7143,2024-07-26 20:18:26.714,107,false,0.0,4210.128, 4367.564, 4090.641, 4203.461, 4240.641
1722050306.7221,2024-07-26 20:18:26.722,108,false,0.0,4215.769, 4365.513, 4091.923, 4199.744, 4247.949
1722050306.7299,2024-07-26 20:18:26.729,109,false,0.0,4207.436, 4346.539, 4084.487, 4195.641, 4246.154
1722050306.7377,2024-07-26 20:18:26.737,110,false,0.0,4204.231, 4333.846, 4081.154, 4193.077, 4235.513
1722050306.7455,2024-07-26 20:18:26.745,111,false,0.0,4220.256, 4349.487, 4099.103, 4198.205, 4246.923
1722050306.7534,2024-07-26 20:18:26.753,112,false,0.0,4233.205, 4375.513, 4111.795, 4200.128, 4258.974
1722050306.7612,2024-07-26 20:18:26.761,113,false,0.0,4223.077, 4361.795, 4103.59, 4185.897, 4244.103
1722050306.769,2024-07-26 20:18:26.769,114,false,0.0,4207.18, 4330.897, 4097.949, 4174.615, 4236.154
1722050306.7768,2024-07-26 20:18:26.776,115,false,0.0,4207.564, 4338.59, 4102.308, 4182.436, 4248.077
1722050306.7846,2024-07-26 20:18:26.784,116,false,0.0,4217.308, 4354.615, 4107.18, 4190.641, 4250.0
1722050306.7924,2024-07-26 20:18:26.792,117,false,0.0,4226.539, 4354.231, 4118.333, 4193.077, 4250.385
1722050306.8002,2024-07-26 20:18:26.800,118,false,0.0,4231.795, 4363.846, 4126.795, 4193.974, 4259.872
1722050306.808,2024-07-26 20:18:26.808,119,false,0.0,4225.256, 4359.487, 4112.82, 4179.744, 4255.641
1722050306.8159,2024-07-26 20:18:26.815,120,false,0.0,4220.0, 4337.564, 4099.359, 4167.82, 4249.872
1722050306.8237,2024-07-26 20:18:26.823,121,false,0.0,4232.308, 4351.667, 4109.359, 4182.82, 4261.154
1722050306.8315,2024-07-26 20:18:26.831,122,false,0.0,4242.051, 4372.18, 4116.795, 4190.128, 4264.872
1722050306.8393,2024-07-26 20:18:26.839,123,false,0.0,4239.231, 4355.641, 4115.0, 4174.487, 4261.282
1722050306.8471,2024-07-26 20:18:26.847,124,false,0.0,4241.923, 4353.205, 4125.897, 4175.256, 4272.18
1722050306.8549,2024-07-26 20:18:26.854,125,false,0.0,4244.231, 4368.461, 4130.128, 4185.385, 4280.385
1722050306.8627,2024-07-26 20:18:26.862,126,false,0.0,4251.154, 4356.795, 4108.333, 4172.18, 4285.385
1722050306.8705,2024-07-26 20:18:26.870,127,false,0.0,4288.077, 4348.974, 4092.821, 4150.641, 4314.487
1722050306.8784,2024-07-26 20:18:26.878,0,false,0.0,4328.718, 4357.564, 4098.077, 4140.256, 4351.41
1722050306.8862,2024-07-26 20:18:26.886,1,false,0.0,4348.333, 4345.641, 4102.051, 4142.436, 4376.282
1722050306.894,2024-07-26 20:18:26.894,2,false,0.0,4386.282, 4339.872, 4101.282, 4156.282, 4409.359
1722050306.9018,2024-07-26 20:18:26.901,3,false,0.0,4441.795, 4364.744, 4102.18, 4165.0, 4449.487
1722050306.9096,2024-07-26 20:18:26.909,4,false,0.0,4465.0, 4383.846, 4105.385, 4164.103, 4473.077
1722050306.9174,2024-07-26 20:18:26.917,5,false,0.0,4474.103, 4392.051, 4116.282, 4171.154, 4486.667
1722050306.9252,2024-07-26 20:18:26.925,6,false,0.0,4504.359, 4395.385, 4128.205, 4179.359, 4499.615
1722050306.933,2024-07-26 20:18:26.933,7,false,0.0,4521.923, 4373.974, 4124.487, 4173.461, 4499.744
1722050306.9409,2024-07-26 20:18:26.940,8,false,0.0,4510.513, 4352.436, 4111.795, 4161.41, 4488.205
1722050306.9487,2024-07-26 20:18:26.948,9,false,0.0,4509.103, 4365.897, 4110.769, 4158.718, 4486.026
1722050306.9565,2024-07-26 20:18:26.956,10,false,0.0,4526.026, 4396.41, 4124.359, 4174.359, 4494.872
1722050306.9643,2024-07-26 20:18:26.964,11,false,0.0,4529.615, 4418.846, 4133.077, 4189.231, 4490.128
1722050306.9721,2024-07-26 20:18:26.972,12,false,0.0,4509.103, 4413.333, 4120.256, 4175.769, 4462.051
1722050306.9799,2024-07-26 20:18:26.979,13,false,0.0,4482.051, 4383.205, 4105.385, 4159.872, 4434.744
1722050306.9877,2024-07-26 20:18:26.987,14,false,0.0,4471.923, 4382.949, 4112.436, 4174.103, 4430.128
1722050306.9955,2024-07-26 20:18:26.995,15,false,0.0,4478.974, 4407.564, 4117.949, 4187.051, 4431.923
1722050307.0034,2024-07-26 20:18:27.003,16,false,0.0,4473.718, 4388.718, 4101.795, 4173.205, 4413.718
1722050307.0112,2024-07-26 20:18:27.011,17,false,0.0,4451.41, 4359.231, 4093.718, 4160.385, 4386.154
1722050307.019,2024-07-26 20:18:27.019,18,false,0.0,4439.103, 4379.359, 4104.872, 4164.615, 4377.308
1722050307.0268,2024-07-26 20:18:27.026,19,false,0.0,4434.231, 4397.18, 4111.154, 4173.974, 4378.077
1722050307.0346,2024-07-26 20:18:27.034,20,false,0.0,4418.59, 4387.18, 4112.308, 4182.308, 4363.846
1722050307.0424,2024-07-26 20:18:27.042,21,false,0.0,4400.897, 4390.128, 4113.205, 4182.564, 4340.897
1722050307.0502,2024-07-26 20:18:27.050,22,false,0.0,4385.897, 4385.128, 4101.667, 4172.051, 4321.923
1722050307.058,2024-07-26 20:18:27.058,23,false,0.0,4372.82, 4369.744, 4091.154, 4167.564, 4311.282
1722050307.0659,2024-07-26 20:18:27.065,24,false,0.0,4371.026, 4388.846, 4098.59, 4177.82, 4316.154
1722050307.0737,2024-07-26 20:18:27.073,25,false,0.0,4366.539, 4398.59, 4102.82, 4184.744, 4320.0
1722050307.0815,2024-07-26 20:18:27.081,26,false,0.0,4344.615, 4366.282, 4095.128, 4174.359, 4298.974
1722050307.0893,2024-07-26 20:18:27.089,27,false,0.0,4324.872, 4362.308, 4095.769, 4159.231, 4271.923
1722050307.0971,2024-07-26 20:18:27.097,28,false,0.0,4315.256, 4388.077, 4105.897, 4156.41, 4263.846
1722050307.1049,2024-07-26 20:18:27.104,29,false,0.0,4306.923, 4387.308, 4114.744, 4166.539, 4266.026
1722050307.1127,2024-07-26 20:18:27.112,30,false,0.0,4302.82, 4381.41, 4118.718, 4177.051, 4267.82
1722050307.1205,2024-07-26 20:18:27.120,31,false,0.0,4295.256, 4384.487, 4111.539, 4176.154, 4264.103
1722050307.1284,2024-07-26 20:18:27.128,32,false,0.0,4280.385, 4375.385, 4104.359, 4169.103, 4252.949
1722050307.1362,2024-07-26 20:18:27.136,33,false,0.0,4278.974, 4371.41, 4113.205, 4169.615, 4249.615
1722050307.144,2024-07-26 20:18:27.144,34,false,0.0,4287.18, 4368.461, 4117.82, 4174.872, 4255.769
1722050307.1518,2024-07-26 20:18:27.151,35,false,0.0,4280.897, 4345.256, 4100.0, 4169.744, 4248.974
1722050307.1596,2024-07-26 20:18:27.159,36,false,0.0,4266.795, 4336.282, 4084.872, 4159.359, 4232.564
1722050307.1674,2024-07-26 20:18:27.167,37,false,0.0,4261.282, 4357.308, 4093.718, 4165.128, 4234.231
1722050307.1752,2024-07-26 20:18:27.175,38,false,0.0,4265.385, 4374.615, 4109.872, 4185.385, 4251.026
1722050307.183,2024-07-26 20:18:27.183,39,false,0.0,4268.205, 4377.051, 4107.692, 4194.359, 4251.795
1722050307.1909,2024-07-26 20:18:27.190,40,false,0.0,4257.564, 4371.539, 4091.539, 4187.18, 4232.82
1722050307.1987,2024-07-26 20:18:27.198,41,false,0.0,4243.974, 4366.41, 4092.308, 4182.051, 4221.026
1722050307.2065,2024-07-26 20:18:27.206,42,false,0.0,4244.103, 4366.667, 4112.18, 4178.333, 4225.769
1722050307.2143,2024-07-26 20:18:27.214,43,false,0.0,4251.795, 4358.974, 4122.18, 4171.667, 4234.615
1722050307.2221,2024-07-26 20:18:27.222,44,false,0.0,4262.308, 4356.282, 4122.308, 4172.692, 4239.744
1722050307.2299,2024-07-26 20:18:27.229,45,false,0.0,4269.615, 4376.539, 4122.82, 4171.154, 4232.692
1722050307.2377,2024-07-26 20:18:27.237,46,false,0.0,4258.205, 4378.461, 4112.564, 4159.744, 4215.641
1722050307.2455,2024-07-26 20:18:27.245,47,false,0.0,4247.564, 4355.128, 4104.872, 4166.667, 4214.359
1722050307.2534,2024-07-26 20:18:27.253,48,false,0.0,4258.718, 4361.667, 4116.795, 4188.077, 4227.82
1722050307.2612,2024-07-26 20:18:27.261,49,false,0.0,4266.282, 4382.18, 4121.282, 4189.231, 4223.846
1722050307.269,2024-07-26 20:18:27.269,50,false,0.0,4260.385, 4373.461, 4112.436, 4183.974, 4210.0
1722050307.2768,2024-07-26 20:18:27.276,51,false,0.0,4257.82, 4368.333, 4113.333, 4188.718, 4208.077
1722050307.2846,2024-07-26 20:18:27.284,52,false,0.0,4254.487, 4380.769, 4114.359, 4183.461, 4204.487
1722050307.2924,2024-07-26 20:18:27.292,53,false,0.0,4254.744, 4381.795, 4111.667, 4176.41, 4197.564
1722050307.3002,2024-07-26 20:18:27.300,54,false,0.0,4258.077, 4381.026, 4117.436, 4179.231, 4201.923
1722050307.308,2024-07-26 20:18:27.308,55,false,0.0,4241.795, 4382.436, 4113.846, 4172.436, 4204.359
1722050307.3159,2024-07-26 20:18:27.315,56,false,0.0,4229.872, 4370.128, 4104.231, 4166.539, 4200.769
1722050307.3237,2024-07-26 20:18:27.323,57,false,0.0,4243.205, 4363.077, 4114.359, 4176.923, 4199.872
1722050307.3315,2024-07-26 20:18:27.331,58,false,0.0,4238.59, 4363.333, 4121.154, 4179.487, 4188.333
1722050307.3393,2024-07-26 20:18:27.339,59,false,0.0,4221.667, 4356.282, 4112.949, 4174.231, 4175.0
1722050307.3471,2024-07-26 20:18:27.347,60,false,0.0,4231.539, 4370.256, 4121.667, 4178.846, 4184.487
1722050307.3549,2024-07-26 20:18:27.354,61,false,0.0,4234.487, 4396.539, 4129.872, 4181.282, 4193.205
1722050307.3627,2024-07-26 20:18:27.362,62,false,0.0,4218.846, 4383.205, 4108.974, 4179.872, 4180.385
1722050307.3705,2024-07-26 20:18:27.370,63,false,0.0,4222.18, 4361.026, 4096.154, 4181.41, 4170.385
1722050307.3784,2024-07-26 20:18:27.378,64,false,0.0,4228.205, 4378.846, 4109.487, 4175.0, 4171.154
1722050307.3862,2024-07-26 20:18:27.386,65,false,0.0,4219.359, 4392.308, 4118.205, 4167.949, 4168.333
1722050307.394,2024-07-26 20:18:27.394,66,false,0.0,4210.128, 4373.205, 4111.282, 4168.077, 4157.692
1722050307.4018,2024-07-26 20:18:27.401,67,false,0.0,4192.436, 4359.744, 4096.667, 4162.18, 4141.282
1722050307.4096,2024-07-26 20:18:27.409,68,false,0.0,4184.872, 4359.872, 4088.974, 4163.333, 4137.051
1722050307.4174,2024-07-26 20:18:27.417,69,false,0.0,4215.0, 4361.41, 4106.282, 4183.333, 4159.872
1722050307.4252,2024-07-26 20:18:27.425,70,false,0.0,4237.949, 4373.974, 4125.128, 4191.282, 4185.385
1722050307.433,2024-07-26 20:18:27.433,71,false,0.0,4225.513, 4384.487, 4114.103, 4177.436, 4191.154
1722050307.4409,2024-07-26 20:18:27.440,72,false,0.0,4213.718, 4374.487, 4100.513, 4170.385, 4186.41
1722050307.4487,2024-07-26 20:18:27.448,73,false,0.0,4213.461, 4358.333, 4107.051, 4178.077, 4181.923
1722050307.4565,2024-07-26 20:18:27.456,74,false,0.0,4212.564, 4340.769, 4108.077, 4183.077, 4182.436
1722050307.4643,2024-07-26 20:18:27.464,75,false,0.0,4211.795, 4326.154, 4098.461, 4178.974, 4186.795
1722050307.4721,2024-07-26 20:18:27.472,76,false,0.0,4209.359, 4342.949, 4097.949, 4178.718, 4185.128
1722050307.4799,2024-07-26 20:18:27.479,77,false,0.0,4211.923, 4373.461, 4103.333, 4188.205, 4182.051
1722050307.4877,2024-07-26 20:18:27.487,78,false,0.0,4222.18, 4375.897, 4109.487, 4195.641, 4187.564
1722050307.4955,2024-07-26 20:18:27.495,79,false,0.0,4222.436, 4375.128, 4115.641, 4196.667, 4188.974
1722050307.5034,2024-07-26 20:18:27.503,80,false,0.0,4211.795, 4386.923, 4103.461, 4188.846, 4178.205
1722050307.5112,2024-07-26 20:18:27.511,81,false,0.0,4207.051, 4373.461, 4080.0, 4170.897, 4172.82
1722050307.519,2024-07-26 20:18:27.519,82,false,0.0,4215.256, 4357.949, 4082.692, 4168.974, 4181.154
1722050307.5268,2024-07-26 20:18:27.526,83,false,0.0,4229.615, 4379.744, 4106.667, 4190.0, 4190.769
1722050307.5346,2024-07-26 20:18:27.534,84,false,0.0,4231.539, 4385.385, 4115.897, 4195.128, 4195.513
1722050307.5424,2024-07-26 20:18:27.542,85,false,0.0,4220.0, 4353.974, 4110.256, 4180.897, 4196.154
1722050307.5502,2024-07-26 20:18:27.550,86,false,0.0,4214.872, 4347.308, 4108.59, 4176.923, 4192.436
1722050307.558,2024-07-26 20:18:27.558,87,false,0.0,4214.487, 4365.641, 4111.539, 4181.282, 4190.769
1722050307.5659,2024-07-26 20:18:27.565,88,false,0.0,4207.308, 4370.897, 4110.256, 4185.641, 4188.461
1722050307.5737,2024-07-26 20:18:27.573,89,false,0.0,4204.615, 4375.385, 4103.333, 4190.256, 4176.282
1722050307.5815,2024-07-26 20:18:27.581,90,false,0.0,4215.256, 4379.744, 4106.667, 4191.154, 4175.256
1722050307.5893,2024-07-26 20:18:27.589,91,false,0.0,4227.949, 4370.385, 4117.564, 4191.026, 4190.128
1722050307.5971,2024-07-26 20:18:27.597,92,false,0.0,4222.82, 4368.974, 4105.769, 4178.461, 4180.897
1722050307.6049,2024-07-26 20:18:27.604,93,false,0.0,4202.949, 4378.205, 4086.667, 4156.539, 4162.82
1722050307.6127,2024-07-26 20:18:27.612,94,false,0.0,4202.18, 4373.333, 4096.282, 4163.333, 4180.513
1722050307.6205,2024-07-26 20:18:27.620,95,false,0.0,4218.718, 4359.359, 4106.026, 4183.846, 4194.231
1722050307.6284,2024-07-26 20:18:27.628,96,false,0.0,4218.205, 4352.18, 4100.897, 4178.077, 4179.872
1722050307.6362,2024-07-26 20:18:27.636,97,false,0.0,4209.487, 4353.846, 4111.923, 4177.308, 4186.41
1722050307.644,2024-07-26 20:18:27.644,98,false,0.0,4210.256, 4364.744, 4118.205, 4190.385, 4197.949
1722050307.6518,2024-07-26 20:18:27.651,99,false,0.0,4205.641, 4372.308, 4099.103, 4176.41, 4177.949
1722050307.6596,2024-07-26 20:18:27.659,100,false,0.0,4196.282, 4364.487, 4093.077, 4158.59, 4167.18
1722050307.6674,2024-07-26 20:18:27.667,101,false,0.0,4194.615, 4359.744, 4103.077, 4168.59, 4176.41
1722050307.6752,2024-07-26 20:18:27.675,102,false,0.0,4201.923, 4373.846, 4114.487, 4181.667, 4181.539
1722050307.683,2024-07-26 20:18:27.683,103,false,0.0,4214.872, 4381.154, 4134.487, 4185.128, 4193.718
1722050307.6909,2024-07-26 20:18:27.690,104,false,0.0,4212.308, 4362.308, 4130.128, 4181.539, 4193.205
1722050307.6987,2024-07-26 20:18:27.698,105,false,0.0,4195.256, 4345.513, 4099.359, 4173.461, 4165.769
1722050307.7065,2024-07-26 20:18:27.706,106,false,0.0,4198.333, 4348.077, 4096.795, 4172.82, 4162.436
1722050307.7143,2024-07-26 20:18:27.714,107,false,0.0,4210.385, 4351.154, 4103.974, 4171.154, 4184.744
1722050307.7221,2024-07-26 20:18:27.722,108,false,0.0,4214.744, 4357.436, 4093.974, 4171.539, 4196.282
1722050307.7299,2024-07-26 20:18:27.729,109,false,0.0,4234.359, 4377.308, 4106.282, 4188.718, 4208.974
1722050307.7377,2024-07-26 20:18:27.737,110,false,0.0,4241.026, 4381.795, 4118.846, 4187.564, 4214.103
1722050307.7455,2024-07-26 20:18:27.745,111,false,0.0,4208.718, 4360.128, 4098.846, 4164.744, 4199.103
1722050307.7534,2024-07-26 20:18:27.753,112,false,0.0,4202.18, 4346.667, 4097.949, 4174.744, 4206.154
1722050307.7612,2024-07-26 20:18:27.761,113,false,0.0,4234.615, 4354.359, 4117.564, 4197.436, 4235.256
1722050307.769,2024-07-26 20:18:27.769,114,false,0.0,4244.103, 4361.923, 4112.949, 4194.359, 4248.846
1722050307.7768,2024-07-26 20:18:27.776,115,false,0.0,4237.18, 4360.513, 4108.333, 4198.205, 4254.487
1722050307.7846,2024-07-26 20:18:27.784,116,false,0.0,4240.641, 4363.718, 4115.769, 4205.513, 4253.974
1722050307.7924,2024-07-26 20:18:27.792,117,false,0.0,4237.308, 4373.077, 4113.846, 4188.846, 4245.128
1722050307.8002,2024-07-26 20:18:27.800,118,false,0.0,4233.205, 4369.103, 4118.077, 4180.128, 4252.692
1722050307.808,2024-07-26 20:18:27.808,119,false,0.0,4235.897, 4362.436, 4123.974, 4187.564, 4260.513
1722050307.8159,2024-07-26 20:18:27.815,120,false,0.0,4228.205, 4377.051, 4114.872, 4184.744, 4244.103
1722050307.8237,2024-07-26 20:18:27.823,121,false,0.0,4214.103, 4381.282, 4115.769, 4182.18, 4232.18
1722050307.8315,2024-07-26 20:18:27.831,122,false,0.0,4202.692, 4355.385, 4121.667, 4182.949, 4231.41
1722050307.8393,2024-07-26 20:18:27.839,123,false,0.0,4193.59, 4345.0, 4109.872, 4175.769, 4226.795
1722050307.8471,2024-07-26 20:18:27.847,124,false,0.0,4197.18, 4357.564, 4109.103, 4176.154, 4236.667
1722050307.8549,2024-07-26 20:18:27.854,125,false,0.0,4208.846, 4361.539, 4126.026, 4189.744, 4258.718
1722050307.8627,2024-07-26 20:18:27.862,126,false,0.0,4217.949, 4362.82, 4130.0, 4203.333, 4268.333
1722050307.8705,2024-07-26 20:18:27.870,127,false,0.0,4225.256, 4362.82, 4121.41, 4208.461, 4267.308
1722050307.8784,2024-07-26 20:18:27.878,0,false,0.0,4220.128, 4356.539, 4110.128, 4193.846, 4257.308
1722050307.8862,2024-07-26 20:18:27.886,1,false,0.0,4209.359, 4362.692, 4103.59, 4175.385, 4248.205
1722050307.894,2024-07-26 20:18:27.894,2,false,0.0,4219.487, 4367.564, 4116.667, 4182.051, 4260.769
1722050307.9018,2024-07-26 20:18:27.901,3,false,0.0,4231.154, 4362.18, 4127.564, 4191.154, 4272.051
1722050307.9096,2024-07-26 20:18:27.909,4,false,0.0,4218.333, 4379.744, 4114.872, 4179.231, 4260.0
1722050307.9174,2024-07-26 20:18:27.917,5,false,0.0,4208.333, 4393.077, 4104.615, 4174.359, 4252.692
1722050307.9252,2024-07-26 20:18:27.925,6,false,0.0,4218.461, 4365.769, 4105.385, 4186.154, 4260.128
1722050307.933,2024-07-26 20:18:27.933,7,false,0.0,4227.564, 4354.359, 4102.564, 4191.41, 4262.82
1722050307.9409,2024-07-26 20:18:27.940,8,false,0.0,4226.154, 4373.846, 4106.282, 4188.59, 4262.18
1722050307.9487,2024-07-26 20:18:27.948,9,false,0.0,4220.897, 4367.949, 4114.359, 4188.718, 4261.41
1722050307.9565,2024-07-26 20:18:27.956,10,false,0.0,4220.641, 4355.769, 4111.795, 4191.667, 4259.487
1722050307.9643,2024-07-26 20:18:27.964,11,false,0.0,4224.615, 4365.641, 4108.974, 4184.615, 4260.513
1722050307.9721,2024-07-26 20:18:27.972,12,false,0.0,4215.256, 4356.923, 4105.769, 4161.154, 4251.923
1722050307.9799,2024-07-26 20:18:27.979,13,false,0.0,4198.205, 4339.359, 4095.641, 4149.872, 4233.974
1722050307.9877,2024-07-26 20:18:27.987,14,false,0.0,4199.872, 4355.769, 4097.949, 4167.692, 4232.949
1722050307.9955,2024-07-26 20:18:27.995,15,false,0.0,4208.461, 4374.487, 4110.641, 4178.718, 4245.128
1722050308.0034,2024-07-26 20:18:28.003,16,false,0.0,4200.897, 4360.128, 4108.718, 4172.564, 4247.949
1722050308.0112,2024-07-26 20:18:28.011,17,false,0.0,4192.692, 4340.641, 4101.539, 4177.692, 4246.154
1722050308.019,2024-07-26 20:18:28.019,18,false,0.0,4202.051, 4348.846, 4108.333, 4187.051, 4249.744
1722050308.0268,2024-07-26 20:18:28.026,19,false,0.0,4217.18, 4371.923, 4119.615, 4185.385, 4256.026
1722050308.0346,2024-07-26 20:18:28.034,20,false,0.0,4216.282, 4367.436, 4114.872, 4181.667, 4257.051
1722050308.0424,2024-07-26 20:18:28.042,21,false,0.0,4203.205, 4345.513, 4095.897, 4174.359, 4248.718
1722050308.0502,2024-07-26 20:18:28.050,22,false,0.0,4207.051, 4357.949, 4092.564, 4167.82, 4243.461
1722050308.058,2024-07-26 20:18:28.058,23,false,0.0,4222.18, 4375.0, 4104.359, 4169.359, 4242.82
1722050308.0659,2024-07-26 20:18:28.065,24,false,0.0,4214.359, 4350.641, 4093.205, 4160.897, 4230.641
1722050308.0737,2024-07-26 20:18:28.073,25,false,0.0,4203.974, 4341.667, 4073.974, 4151.282, 4225.385
1722050308.0815,2024-07-26 20:18:28.081,26,false,0.0,4219.487, 4368.461, 4085.769, 4164.615, 4245.641
1722050308.0893,2024-07-26 20:18:28.089,27,false,0.0,4225.641, 4367.051, 4101.539, 4172.692, 4257.949
1722050308.0971,2024-07-26 20:18:28.097,28,false,0.0,4215.385, 4357.051, 4101.923, 4162.692, 4255.641
1722050308.1049,2024-07-26 20:18:28.104,29,false,0.0,4228.205, 4380.513, 4114.487, 4171.154, 4267.18
1722050308.1127,2024-07-26 20:18:28.112,30,false,0.0,4244.103, 4382.949, 4125.385, 4187.564, 4270.769
1722050308.1205,2024-07-26 20:18:28.120,31,false,0.0,4234.103, 4356.154, 4111.923, 4180.513, 4252.436
1722050308.1284,2024-07-26 20:18:28.128,32,false,0.0,4230.128, 4359.231, 4098.077, 4172.436, 4250.385
1722050308.1362,2024-07-26 20:18:28.136,33,false,0.0,4235.128, 4370.385, 4089.872, 4173.59, 4255.256
1722050308.144,2024-07-26 20:18:28.144,34,false,0.0,4225.256, 4359.872, 4082.821, 4165.641, 4239.487
1722050308.1518,2024-07-26 20:18:28.151,35,false,0.0,4228.333, 4371.026, 4101.154, 4166.667, 4247.051
1722050308.1596,2024-07-26 20:18:28.159,36,false,0.0,4254.615, 4397.692, 4131.667, 4185.385, 4285.897
1722050308.1674,2024-07-26 20:18:28.167,37,false,0.0,4259.359, 4393.718, 4131.795, 4182.949, 4291.026
1722050308.1752,2024-07-26 20:18:28.175,38,false,0.0,4238.333, 4383.333, 4112.308, 4157.82, 4267.436
1722050308.183,2024-07-26 20:18:28.183,39,false,0.0,4226.923, 4385.0, 4102.308, 4153.461, 4265.385
1722050308.1909,2024-07-26 20:18:28.190,40,false,0.0,4229.615, 4369.231, 4096.026, 4170.385, 4268.205
1722050308.1987,2024-07-26 20:18:28.198,41,false,0.0,4235.385, 4357.692, 4094.615, 4178.718, 4261.923
1722050308.2065,2024-07-26 20:18:28.206,42,false,0.0,4235.513, 4378.205, 4104.487, 4175.385, 4268.077
1722050308.2143,2024-07-26 20:18:28.214,43,false,0.0,4223.461, 4387.18, 4105.385, 4168.59, 4271.795
1722050308.2221,2024-07-26 20:18:28.222,44,false,0.0,4219.359, 4375.897, 4096.154, 4166.282, 4262.051
1722050308.2299,2024-07-26 20:18:28.229,45,false,0.0,4232.949, 4381.154, 4102.436, 4171.923, 4263.205
1722050308.2377,2024-07-26 20:18:28.237,46,false,0.0,4230.0, 4381.41, 4110.897, 4168.461, 4262.692
1722050308.2455,2024-07-26 20:18:28.245,47,false,0.0,4210.897, 4361.41, 4100.769, 4155.385, 4246.539
1722050308.2534,2024-07-26 20:18:28.253,48,false,0.0,4216.539, 4362.051, 4101.282, 4159.615, 4247.82
1722050308.2612,2024-07-26 20:18:28.261,49,false,0.0,4232.18, 4375.128, 4117.692, 4171.41, 4265.0
1722050308.269,2024-07-26 20:18:28.269,50,false,0.0,4223.205, 4367.308, 4114.615, 4166.41, 4267.051
1722050308.2768,2024-07-26 20:18:28.276,51,false,0.0,4214.615, 4361.539, 4101.154, 4164.103, 4266.795
1722050308.2846,2024-07-26 20:18:28.284,52,false,0.0,4223.077, 4369.615, 4105.128, 4175.897, 4272.308
1722050308.2924,2024-07-26 20:18:28.292,53,false,0.0,4228.333, 4376.923, 4113.974, 4181.41, 4269.615
1722050308.3002,2024-07-26 20:18:28.300,54,false,0.0,4231.923, 4388.59, 4117.18, 4182.18, 4271.154
1722050308.308,2024-07-26 20:18:28.308,55,false,0.0,4237.18, 4391.282, 4118.59, 4187.308, 4276.667
1722050308.3159,2024-07-26 20:18:28.315,56,false,0.0,4232.436, 4376.026, 4117.308, 4187.051, 4267.82
1722050308.3237,2024-07-26 20:18:28.323,57,false,0.0,4227.692, 4380.128, 4120.641, 4183.461, 4263.461
1722050308.3315,2024-07-26 20:18:28.331,58,false,0.0,4228.077, 4397.949, 4125.641, 4184.487, 4276.41
1722050308.3393,2024-07-26 20:18:28.339,59,false,0.0,4225.513, 4388.974, 4120.0, 4185.641, 4283.59
1722050308.3471,2024-07-26 20:18:28.347,60,false,0.0,4226.923, 4379.615, 4118.205, 4182.436, 4277.308
1722050308.3549,2024-07-26 20:18:28.354,61,false,0.0,4222.308, 4386.026, 4122.692, 4173.59, 4265.0
1722050308.3627,2024-07-26 20:18:28.362,62,false,0.0,4204.872, 4368.461, 4113.59, 4169.744, 4261.923
1722050308.3705,2024-07-26 20:18:28.370,63,false,0.0,4216.41, 4354.359, 4105.641, 4187.692, 4291.282
1722050308.3784,2024-07-26 20:18:28.378,64,false,0.0,4256.026, 4383.205, 4113.974, 4206.41, 4327.692
1722050308.3862,2024-07-26 20:18:28.386,65,false,0.0,4260.256, 4389.103, 4117.051, 4200.897, 4331.795
1722050308.394,2024-07-26 20:18:28.394,66,false,0.0,4238.205, 4346.923, 4113.333, 4199.487, 4335.641
1722050308.4018,2024-07-26 20:18:28.401,67,false,0.0,4247.692, 4337.692, 4118.974, 4217.436, 4362.18
1722050308.4096,2024-07-26 20:18:28.409,68,false,0.0,4267.308, 4366.539, 4124.872, 4219.615, 4370.128
1722050308.4174,2024-07-26 20:18:28.417,69,false,0.0,4256.154, 4368.205, 4124.231, 4202.436, 4353.461
1722050308.4252,2024-07-26 20:18:28.425,70,false,0.0,4239.487, 4354.615, 4118.59, 4195.513, 4345.769
1722050308.433,2024-07-26 20:18:28.433,71,false,0.0,4239.231, 4357.436, 4106.539, 4194.615, 4342.564
1722050308.4409,2024-07-26 20:18:28.440,72,false,0.0,4236.154, 4357.308, 4102.82, 4188.205, 4333.077
1722050308.4487,2024-07-26 20:18:28.448,73,false,0.0,4225.897, 4345.128, 4111.026, 4189.103, 4330.641
1722050308.4565,2024-07-26 20:18:28.456,74,false,0.0,4222.82, 4332.82, 4105.0, 4195.128, 4331.41
1722050308.4643,2024-07-26 20:18:28.464,75,false,0.0,4218.333, 4329.231, 4086.282, 4188.846, 4317.308
1722050308.4721,2024-07-26 20:18:28.472,76,false,0.0,4203.461, 4338.205, 4083.974, 4176.539, 4295.0
1722050308.4799,2024-07-26 20:18:28.479,77,false,0.0,4201.795, 4343.077, 4098.974, 4179.615, 4291.282
1722050308.4877,2024-07-26 20:18:28.487,78,false,0.0,4218.846, 4335.256, 4110.897, 4191.154, 4305.128
1722050308.4955,2024-07-26 20:18:28.495,79,false,0.0,4218.461, 4333.333, 4106.539, 4185.641, 4303.205
1722050308.5034,2024-07-26 20:18:28.503,80,false,0.0,4199.744, 4336.154, 4097.308, 4174.359, 4288.461
1722050308.5112,2024-07-26 20:18:28.511,81,false,0.0,4202.308, 4335.256, 4106.282, 4188.461, 4297.436
1722050308.519,2024-07-26 20:18:28.519,82,false,0.0,4217.949, 4342.436, 4116.154, 4207.436, 4314.103
1722050308.5268,2024-07-26 20:18:28.526,83,false,0.0,4212.82, 4348.59, 4102.051, 4197.308, 4303.205
1722050308.5346,2024-07-26 20:18:28.534,84,false,0.0,4205.385, 4346.282, 4099.744, 4187.436, 4293.846
1722050308.5424,2024-07-26 20:18:28.542,85,false,0.0,4215.256, 4355.256, 4122.564, 4204.231, 4310.256
1722050308.5502,2024-07-26 20:18:28.550,86,false,0.0,4217.82, 4361.667, 4118.718, 4213.461, 4315.513
1722050308.558,2024-07-26 20:18:28.558,87,false,0.0,4208.461, 4348.077, 4097.18, 4200.128, 4299.103
1722050308.5659,2024-07-26 20:18:28.565,88,false,0.0,4210.385, 4349.231, 4110.385, 4194.872, 4293.59
1722050308.5737,2024-07-26 20:18:28.573,89,false,0.0,4219.103, 4368.077, 4130.385, 4201.923, 4301.026
1722050308.5815,2024-07-26 20:18:28.581,90,false,0.0,4220.256, 4363.718, 4118.205, 4203.077, 4301.923
1722050308.5893,2024-07-26 20:18:28.589,91,false,0.0,4221.539, 4351.282, 4106.667, 4200.0, 4296.282
1722050308.5971,2024-07-26 20:18:28.597,92,false,0.0,4226.282, 4359.103, 4117.436, 4198.205, 4294.872
1722050308.6049,2024-07-26 20:18:28.604,93,false,0.0,4228.974, 4361.41, 4128.461, 4196.667, 4301.41
1722050308.6127,2024-07-26 20:18:28.612,94,false,0.0,4229.231, 4351.795, 4127.18, 4197.308, 4304.103
1722050308.6205,2024-07-26 20:18:28.620,95,false,0.0,4225.897, 4358.718, 4119.615, 4194.103, 4292.949
1722050308.6284,2024-07-26 20:18:28.628,96,false,0.0,4215.641, 4369.872, 4115.897, 4181.667, 4280.256
1722050308.6362,2024-07-26 20:18:28.636,97,false,0.0,4205.128, 4360.256, 4120.128, 4176.282, 4277.692
1722050308.644,2024-07-26 20:18:28.644,98,false,0.0,4207.692, 4351.923, 4126.923, 4189.103, 4283.59
1722050308.6518,2024-07-26 20:18:28.651,99,false,0.0,4223.077, 4363.333, 4133.333, 4201.539, 4296.026
1722050308.6596,2024-07-26 20:18:28.659,100,false,0.0,4228.974, 4369.103, 4133.077, 4196.795, 4299.487
1722050308.6674,2024-07-26 20:18:28.667,101,false,0.0,4218.333, 4361.282, 4122.308, 4187.564, 4288.205
1722050308.6752,2024-07-26 20:18:28.675,102,false,0.0,4216.282, 4364.487, 4119.872, 4191.026, 4291.41
1722050308.683,2024-07-26 20:18:28.683,103,false,0.0,4226.923, 4365.513, 4123.461, 4198.974, 4307.436
1722050308.6909,2024-07-26 20:18:28.690,104,false,0.0,4228.59, 4338.846, 4108.718, 4197.308, 4300.513
1722050308.6987,2024-07-26 20:18:28.698,105,false,0.0,4226.41, 4328.077, 4098.333, 4195.256, 4288.205
1722050308.7065,2024-07-26 20:18:28.706,106,false,0.0,4231.795, 4360.0, 4114.615, 4203.846, 4298.333
1722050308.7143,2024-07-26 20:18:28.714,107,false,0.0,4229.359, 4366.923, 4117.949, 4211.667, 4300.385
1722050308.7221,2024-07-26 20:18:28.722,108,false,0.0,4218.974, 4337.308, 4099.872, 4210.513, 4284.103
1722050308.7299,2024-07-26 20:18:28.729,109,false,0.0,4216.667, 4346.154, 4105.256, 4208.846, 4282.18
1722050308.7377,2024-07-26 20:18:28.737,110,false,0.0,4218.718, 4375.769, 4126.539, 4211.41, 4295.0
1722050308.7455,2024-07-26 20:18:28.745,111,false,0.0,4217.692, 4360.256, 4124.615, 4217.949, 4298.077
1722050308.7534,2024-07-26 20:18:28.753,112,false,0.0,4207.308, 4338.333, 4106.539, 4218.077, 4281.667
1722050308.7612,2024-07-26 20:18:28.761,113,false,0.0,4183.974, 4346.41, 4092.436, 4200.0, 4252.436
1722050308.769,2024-07-26 20:18:28.769,114,false,0.0,4172.308, 4349.615, 4086.026, 4182.949, 4237.82
1722050308.7768,2024-07-26 20:18:28.776,115,false,0.0,4181.539, 4351.154, 4088.077, 4186.923, 4246.41
1722050308.7846,2024-07-26 20:18:28.784,116,false,0.0,4181.282, 4361.667, 4090.128, 4190.897, 4248.974
1722050308.7924,2024-07-26 20:18:28.792,117,false,0.0,4173.846, 4352.82, 4085.897, 4185.513, 4241.41
1722050308.8002,2024-07-26 20:18:28.800,118,false,0.0,4182.051, 4345.128, 4084.615, 4186.026, 4242.82
1722050308.808,2024-07-26 20:18:28.808,119,false,0.0,4184.615, 4365.769, 4089.744, 4184.615, 4244.359
1722050308.8159,2024-07-26 20:18:28.815,120,false,0.0,4173.974, 4372.564, 4094.359, 4176.282, 4242.18
1722050308.8237,2024-07-26 20:18:28.823,121,false,0.0,4178.974, 4353.718, 4095.897, 4178.59, 4249.487
1722050308.8315,2024-07-26 20:18:28.831,122,false,0.0,4185.769, 4346.667, 4092.949, 4186.41, 4252.18
1722050308.8393,2024-07-26 20:18:28.839,123,false,0.0,4171.667, 4344.103, 4086.026, 4184.872, 4239.231
1722050308.8471,2024-07-26 20:18:28.847,124,false,0.0,4164.231, 4333.461, 4081.923, 4181.282, 4232.82
1722050308.8549,2024-07-26 20:18:28.854,125,false,0.0,4174.872, 4336.282, 4085.769, 4181.923, 4241.539
1722050308.8627,2024-07-26 20:18:28.862,126,false,0.0,4180.128, 4348.718, 4094.103, 4182.949, 4246.667
1722050308.8705,2024-07-26 20:18:28.870,127,false,0.0,4179.487, 4351.539, 4100.128, 4181.923, 4244.744
1722050308.8784,2024-07-26 20:18:28.878,0,false,0.0,4184.744, 4351.154, 4109.487, 4185.513, 4249.872
1722050308.8862,2024-07-26 20:18:28.886,1,false,0.0,4194.359, 4352.692, 4122.308, 4198.974, 4261.41
1722050308.894,2024-07-26 20:18:28.894,2,false,0.0,4199.872, 4350.769, 4119.615, 4201.539, 4259.487
1722050308.9018,2024-07-26 20:18:28.901,3,false,0.0,4191.539, 4345.385, 4105.128, 4183.077, 4244.487
1722050308.9096,2024-07-26 20:18:28.909,4,false,0.0,4180.256, 4341.154, 4107.051, 4179.359, 4248.333
1722050308.9174,2024-07-26 20:18:28.917,5,false,0.0,4184.231, 4342.18, 4115.256, 4195.513, 4269.615
1722050308.9252,2024-07-26 20:18:28.925,6,false,0.0,4185.385, 4338.974, 4103.461, 4189.487, 4266.026
1722050308.933,2024-07-26 20:18:28.933,7,false,0.0,4172.82, 4326.41, 4091.154, 4171.923, 4245.385
1722050308.9409,2024-07-26 20:18:28.940,8,false,0.0,4176.667, 4327.436, 4100.385, 4179.744, 4252.436
1722050308.9487,2024-07-26 20:18:28.948,9,false,0.0,4194.872, 4340.128, 4105.641, 4192.82, 4270.256
1722050308.9565,2024-07-26 20:18:28.956,10,false,0.0,4194.359, 4340.769, 4090.641, 4188.205, 4261.923
1722050308.9643,2024-07-26 20:18:28.964,11,false,0.0,4187.692, 4348.077, 4083.846, 4184.231, 4252.308
1722050308.9721,2024-07-26 20:18:28.972,12,false,0.0,4193.205, 4366.41, 4096.795, 4187.949, 4262.564
1722050308.9799,2024-07-26 20:18:28.979,13,false,0.0,4193.077, 4356.026, 4102.564, 4190.769, 4267.692
1722050308.9877,2024-07-26 20:18:28.987,14,false,0.0,4190.128, 4341.795, 4098.333, 4193.59, 4263.077
1722050308.9955,2024-07-26 20:18:28.995,15,false,0.0,4199.103, 4367.051, 4107.436, 4195.769, 4268.205
1722050309.0034,2024-07-26 20:18:29.003,16,false,0.0,4197.949, 4378.59, 4112.949, 4191.667, 4269.359
1722050309.0112,2024-07-26 20:18:29.011,17,false,0.0,4179.359, 4347.18, 4094.103, 4183.077, 4252.308
1722050309.019,2024-07-26 20:18:29.019,18,false,0.0,4175.256, 4340.897, 4087.692, 4182.692, 4244.103
1722050309.0268,2024-07-26 20:18:29.026,19,false,0.0,4183.077, 4363.461, 4106.539, 4191.41, 4255.769
1722050309.0346,2024-07-26 20:18:29.034,20,false,0.0,4168.718, 4347.051, 4102.18, 4185.385, 4251.667
1722050309.0424,2024-07-26 20:18:29.042,21,false,0.0,4142.949, 4310.513, 4076.41, 4163.205, 4224.615
1722050309.0502,2024-07-26 20:18:29.050,22,false,0.0,4145.897, 4323.205, 4080.641, 4161.282, 4216.41
1722050309.058,2024-07-26 20:18:29.058,23,false,0.0,4176.539, 4369.231, 4107.692, 4182.564, 4237.692
1722050309.0659,2024-07-26 20:18:29.065,24,false,0.0,4207.949, 4386.154, 4118.461, 4195.128, 4260.513
1722050309.0737,2024-07-26 20:18:29.073,25,false,0.0,4228.205, 4374.615, 4111.282, 4193.205, 4270.256
1722050309.0815,2024-07-26 20:18:29.081,26,false,0.0,4229.615, 4372.436, 4099.487, 4180.897, 4261.41
1722050309.0893,2024-07-26 20:18:29.089,27,false,0.0,4215.769, 4374.744, 4095.0, 4163.718, 4241.923
1722050309.0971,2024-07-26 20:18:29.097,28,false,0.0,4209.231, 4364.359, 4102.82, 4165.897, 4241.923
1722050309.1049,2024-07-26 20:18:29.104,29,false,0.0,4213.59, 4363.077, 4102.692, 4181.026, 4255.0
1722050309.1127,2024-07-26 20:18:29.112,30,false,0.0,4213.077, 4376.667, 4088.59, 4176.154, 4247.564
1722050309.1205,2024-07-26 20:18:29.120,31,false,0.0,4211.41, 4372.308, 4085.769, 4166.282, 4239.231
1722050309.1284,2024-07-26 20:18:29.128,32,false,0.0,4213.333, 4355.128, 4097.436, 4178.333, 4251.026
1722050309.1362,2024-07-26 20:18:29.136,33,false,0.0,4210.385, 4354.615, 4102.949, 4189.872, 4249.103
1722050309.144,2024-07-26 20:18:29.144,34,false,0.0,4208.205, 4357.308, 4101.923, 4181.154, 4231.026
1722050309.1518,2024-07-26 20:18:29.151,35,false,0.0,4210.897, 4351.026, 4102.18, 4168.461, 4231.539
1722050309.1596,2024-07-26 20:18:29.159,36,false,0.0,4207.564, 4357.308, 4103.077, 4168.333, 4236.539
1722050309.1674,2024-07-26 20:18:29.167,37,false,0.0,4204.103, 4371.282, 4104.487, 4175.897, 4224.487
1722050309.1752,2024-07-26 20:18:29.175,38,false,0.0,4204.359, 4370.513, 4102.308, 4171.539, 4217.308
1722050309.183,2024-07-26 20:18:29.183,39,false,0.0,4198.461, 4366.41, 4096.923, 4161.026, 4223.846
1722050309.1909,2024-07-26 20:18:29.190,40,false,0.0,4200.513, 4372.308, 4099.615, 4171.154, 4231.026
1722050309.1987,2024-07-26 20:18:29.198,41,false,0.0,4213.846, 4372.308, 4105.128, 4182.051, 4233.077
1722050309.2065,2024-07-26 20:18:29.206,42,false,0.0,4205.897, 4359.744, 4100.0, 4163.333, 4224.103
1722050309.2143,2024-07-26 20:18:29.214,43,false,0.0,4186.923, 4351.41, 4094.359, 4151.41, 4214.487
1722050309.2221,2024-07-26 20:18:29.222,44,false,0.0,4200.128, 4359.872, 4097.18, 4171.923, 4224.615
1722050309.2299,2024-07-26 20:18:29.229,45,false,0.0,4224.872, 4373.59, 4096.154, 4183.59, 4236.667
1722050309.2377,2024-07-26 20:18:29.237,46,false,0.0,4219.615, 4371.539, 4089.872, 4170.513, 4229.872
1722050309.2455,2024-07-26 20:18:29.245,47,false,0.0,4203.718, 4360.0, 4092.051, 4163.205, 4225.641
1722050309.2534,2024-07-26 20:18:29.253,48,false,0.0,4205.256, 4358.205, 4099.615, 4167.308, 4231.282
1722050309.2612,2024-07-26 20:18:29.261,49,false,0.0,4210.513, 4358.718, 4096.923, 4161.923, 4226.282
1722050309.269,2024-07-26 20:18:29.269,50,false,0.0,4205.128, 4355.513, 4087.051, 4144.615, 4216.026
1722050309.2768,2024-07-26 20:18:29.276,51,false,0.0,4200.513, 4359.615, 4086.539, 4134.744, 4215.128
1722050309.2846,2024-07-26 20:18:29.284,52,false,0.0,4204.231, 4358.718, 4093.59, 4142.692, 4213.974
1722050309.2924,2024-07-26 20:18:29.292,53,false,0.0,4207.949, 4347.051, 4098.077, 4152.051, 4212.308
1722050309.3002,2024-07-26 20:18:29.300,54,false,0.0,4208.718, 4356.795, 4104.103, 4149.103, 4221.41
1722050309.308,2024-07-26 20:18:29.308,55,false,0.0,4204.615, 4374.872, 4105.0, 4142.949, 4227.18
1722050309.3159,2024-07-26 20:18:29.315,56,false,0.0,4193.205, 4360.641, 4092.051, 4144.231, 4217.308
1722050309.3237,2024-07-26 20:18:29.323,57,false,0.0,4191.923, 4350.385, 4086.795, 4150.513, 4212.692
1722050309.3315,2024-07-26 20:18:29.331,58,false,0.0,4204.103, 4372.308, 4097.436, 4150.769, 4218.718
1722050309.3393,2024-07-26 20:18:29.339,59,false,0.0,4203.205, 4373.077, 4098.205, 4143.846, 4214.103
1722050309.3471,2024-07-26 20:18:29.347,60,false,0.0,4196.539, 4353.59, 4090.128, 4148.718, 4205.513
1722050309.3549,2024-07-26 20:18:29.354,61,false,0.0,4208.077, 4359.359, 4089.103, 4162.949, 4208.59
1722050309.3627,2024-07-26 20:18:29.362,62,false,0.0,4216.282, 4363.333, 4090.0, 4161.282, 4210.641
1722050309.3705,2024-07-26 20:18:29.370,63,false,0.0,4211.282, 4354.615, 4093.333, 4151.282, 4209.103
1722050309.3784,2024-07-26 20:18:29.378,64,false,0.0,4212.564, 4364.359, 4093.718, 4147.949, 4211.026
1722050309.3862,2024-07-26 20:18:29.386,65,false,0.0,4214.359, 4363.718, 4082.436, 4145.641, 4209.103
1722050309.394,2024-07-26 20:18:29.394,66,false,0.0,4218.077, 4349.615, 4087.436, 4154.103, 4213.59
1722050309.4018,2024-07-26 20:18:29.401,67,false,0.0,4233.077, 4369.872, 4111.026, 4169.744, 4227.692
1722050309.4096,2024-07-26 20:18:29.409,68,false,0.0,4226.282, 4380.897, 4107.436, 4160.769, 4219.359
1722050309.4174,2024-07-26 20:18:29.417,69,false,0.0,4193.974, 4347.051, 4083.333, 4137.692, 4192.308
1722050309.4252,2024-07-26 20:18:29.425,70,false,0.0,4181.923, 4339.359, 4072.821, 4131.026, 4181.41
1722050309.433,2024-07-26 20:18:29.433,71,false,0.0,4188.461, 4357.308, 4068.59, 4130.128, 4182.82
1722050309.4409,2024-07-26 20:18:29.440,72,false,0.0,4191.667, 4347.18, 4077.051, 4131.154, 4191.923
1722050309.4487,2024-07-26 20:18:29.448,73,false,0.0,4200.128, 4352.949, 4103.077, 4145.513, 4214.744
1722050309.4565,2024-07-26 20:18:29.456,74,false,0.0,4203.718, 4383.718, 4109.615, 4156.282, 4224.487
1722050309.4643,2024-07-26 20:18:29.464,75,false,0.0,4193.974, 4374.744, 4099.231, 4156.795, 4213.59
1722050309.4721,2024-07-26 20:18:29.472,76,false,0.0,4193.718, 4352.18, 4105.0, 4159.231, 4212.949
1722050309.4799,2024-07-26 20:18:29.479,77,false,0.0,4200.513, 4360.256, 4108.461, 4158.205, 4222.82
1722050309.4877,2024-07-26 20:18:29.487,78,false,0.0,4199.487, 4360.256, 4095.256, 4154.615, 4225.513
1722050309.4955,2024-07-26 20:18:29.495,79,false,0.0,4205.385, 4346.795, 4089.872, 4159.231, 4226.539
1722050309.5034,2024-07-26 20:18:29.503,80,false,0.0,4218.205, 4353.974, 4093.205, 4161.154, 4229.744
1722050309.5112,2024-07-26 20:18:29.511,81,false,0.0,4217.051, 4368.077, 4091.539, 4153.846, 4229.615
1722050309.519,2024-07-26 20:18:29.519,82,false,0.0,4205.513, 4365.128, 4087.692, 4151.923, 4222.82
1722050309.5268,2024-07-26 20:18:29.526,83,false,0.0,4203.333, 4351.795, 4084.615, 4154.487, 4212.949
1722050309.5346,2024-07-26 20:18:29.534,84,false,0.0,4214.744, 4352.949, 4087.436, 4151.795, 4215.128
1722050309.5424,2024-07-26 20:18:29.542,85,false,0.0,4225.897, 4379.487, 4096.923, 4149.231, 4227.436
1722050309.5502,2024-07-26 20:18:29.550,86,false,0.0,4222.692, 4387.308, 4100.256, 4151.282, 4230.641
1722050309.558,2024-07-26 20:18:29.558,87,false,0.0,4214.231, 4353.59, 4094.744, 4151.923, 4228.205
1722050309.5659,2024-07-26 20:18:29.565,88,false,0.0,4213.205, 4339.615, 4090.256, 4149.615, 4230.0
1722050309.5737,2024-07-26 20:18:29.573,89,false,0.0,4213.461, 4359.872, 4092.821, 4153.718, 4232.436
1722050309.5815,2024-07-26 20:18:29.581,90,false,0.0,4215.897, 4359.744, 4102.18, 4167.436, 4241.41
1722050309.5893,2024-07-26 20:18:29.589,91,false,0.0,4224.359, 4351.795, 4105.513, 4172.82, 4249.487
1722050309.5971,2024-07-26 20:18:29.597,92,false,0.0,4222.436, 4365.897, 4094.359, 4160.128, 4233.59
1722050309.6049,2024-07-26 20:18:29.604,93,false,0.0,4207.949, 4369.103, 4084.359, 4151.026, 4212.18
1722050309.6127,2024-07-26 20:18:29.612,94,false,0.0,4203.846, 4355.385, 4082.821, 4157.18, 4213.974
1722050309.6205,2024-07-26 20:18:29.620,95,false,0.0,4212.692, 4352.692, 4082.308, 4162.692, 4220.769
1722050309.6284,2024-07-26 20:18:29.628,96,false,0.0,4218.461, 4358.333, 4087.564, 4159.872, 4220.513
1722050309.6362,2024-07-26 20:18:29.636,97,false,0.0,4218.461, 4372.051, 4095.641, 4157.308, 4227.051
1722050309.644,2024-07-26 20:18:29.644,98,false,0.0,4217.82, 4385.897, 4094.103, 4158.718, 4233.205
1722050309.6518,2024-07-26 20:18:29.651,99,false,0.0,4218.461, 4374.103, 4090.769, 4162.051, 4229.103
1722050309.6596,2024-07-26 20:18:29.659,100,false,0.0,4221.026, 4358.718, 4090.769, 4161.667, 4225.385
1722050309.6674,2024-07-26 20:18:29.667,101,false,0.0,4225.128, 4360.641, 4086.282, 4159.744, 4227.308
1722050309.6752,2024-07-26 20:18:29.675,102,false,0.0,4228.974, 4350.0, 4083.205, 4165.256, 4230.641
1722050309.683,2024-07-26 20:18:29.683,103,false,0.0,4227.564, 4343.59, 4084.487, 4167.564, 4229.744
1722050309.6909,2024-07-26 20:18:29.690,104,false,0.0,4220.641, 4368.59, 4083.846, 4156.282, 4222.692
1722050309.6987,2024-07-26 20:18:29.698,105,false,0.0,4219.615, 4373.077, 4089.615, 4152.949, 4221.539
1722050309.7065,2024-07-26 20:18:29.706,106,false,0.0,4226.026, 4349.615, 4095.385, 4163.333, 4224.872
1722050309.7143,2024-07-26 20:18:29.714,107,false,0.0,4223.077, 4360.0, 4081.539, 4155.513, 4210.0
1722050309.7221,2024-07-26 20:18:29.722,108,false,0.0,4207.82, 4380.769, 4065.256, 4131.667, 4189.615
1722050309.7299,2024-07-26 20:18:29.729,109,false,0.0,4201.539, 4368.59, 4074.103, 4134.615, 4198.718
1722050309.7377,2024-07-26 20:18:29.737,110,false,0.0,4216.026, 4369.615, 4094.744, 4162.436, 4223.718
1722050309.7455,2024-07-26 20:18:29.745,111,false,0.0,4229.359, 4390.897, 4101.539, 4168.974, 4226.282
1722050309.7534,2024-07-26 20:18:29.753,112,false,0.0,4219.615, 4374.359, 4092.564, 4147.949, 4210.385
1722050309.7612,2024-07-26 20:18:29.761,113,false,0.0,4210.769, 4347.051, 4087.308, 4139.359, 4209.487
1722050309.769,2024-07-26 20:18:29.769,114,false,0.0,4228.461, 4364.744, 4099.744, 4155.513, 4228.205
1722050309.7768,2024-07-26 20:18:29.776,115,false,0.0,4241.539, 4382.692, 4112.82, 4165.897, 4234.615
1722050309.7846,2024-07-26 20:18:29.784,116,false,0.0,4226.795, 4360.769, 4109.231, 4157.692, 4215.513
1722050309.7924,2024-07-26 20:18:29.792,117,false,0.0,4217.051, 4348.205, 4105.256, 4151.795, 4203.718
1722050309.8002,2024-07-26 20:18:29.800,118,false,0.0,4227.18, 4367.436, 4110.128, 4157.82, 4213.974
1722050309.808,2024-07-26 20:18:29.808,119,false,0.0,4231.923, 4377.564, 4109.487, 4164.744, 4221.667
1722050309.8159,2024-07-26 20:18:29.815,120,false,0.0,4225.769, 4372.18, 4104.103, 4168.205, 4220.385
1722050309.8237,2024-07-26 20:18:29.823,121,false,0.0,4224.872, 4372.051, 4104.487, 4171.41, 4224.231
1722050309.8315,2024-07-26 20:18:29.831,122,false,0.0,4233.974, 4370.897, 4107.82, 4172.82, 4228.59
1722050309.8393,2024-07-26 20:18:29.839,123,false,0.0,4240.641, 4366.282, 4107.051, 4168.59, 4224.744
1722050309.8471,2024-07-26 20:18:29.847,124,false,0.0,4227.308, 4366.026, 4094.103, 4156.41, 4212.308
1722050309.8549,2024-07-26 20:18:29.854,125,false,0.0,4204.615, 4362.436, 4075.128, 4144.487, 4194.615
1722050309.8627,2024-07-26 20:18:29.862,126,false,0.0,4205.641, 4359.615, 4080.641, 4152.692, 4192.308
1722050309.8705,2024-07-26 20:18:29.870,127,false,0.0,4227.82, 4370.769, 4110.513, 4174.744, 4217.436
1722050309.8784,2024-07-26 20:18:29.878,0,false,0.0,4239.487, 4383.59, 4121.154, 4176.795, 4235.897
1722050309.8862,2024-07-26 20:18:29.886,1,false,0.0,4234.615, 4384.615, 4107.436, 4157.308, 4221.154
1722050309.894,2024-07-26 20:18:29.894,2,false,0.0,4229.487, 4382.308, 4105.128, 4148.718, 4206.667
1722050309.9018,2024-07-26 20:18:29.901,3,false,0.0,4232.308, 4382.82, 4115.641, 4159.872, 4221.795
1722050309.9096,2024-07-26 20:18:29.909,4,false,0.0,4237.82, 4375.128, 4114.231, 4171.154, 4236.154
1722050309.9174,2024-07-26 20:18:29.917,5,false,0.0,4236.667, 4354.103, 4101.795, 4169.487, 4226.026
1722050309.9252,2024-07-26 20:18:29.925,6,false,0.0,4232.436, 4343.077, 4096.539, 4160.256, 4218.59
1722050309.933,2024-07-26 20:18:29.933,7,false,0.0,4232.308, 4356.154, 4100.513, 4158.205, 4227.051
1722050309.9409,2024-07-26 20:18:29.940,8,false,0.0,4229.359, 4370.256, 4100.385, 4165.128, 4226.667
1722050309.9487,2024-07-26 20:18:29.948,9,false,0.0,4225.0, 4377.18, 4094.231, 4166.539, 4214.744
1722050309.9565,2024-07-26 20:18:29.956,10,false,0.0,4228.205, 4380.0, 4093.461, 4157.692, 4209.359
1722050309.9643,2024-07-26 20:18:29.964,11,false,0.0,4229.103, 4358.974, 4090.897, 4148.077, 4208.205
1722050309.9721,2024-07-26 20:18:29.972,12,false,0.0,4222.692, 4337.564, 4077.179, 4143.205, 4206.282
1722050309.9799,2024-07-26 20:18:29.979,13,false,0.0,4226.154, 4361.026, 4076.026, 4145.128, 4211.41
1722050309.9877,2024-07-26 20:18:29.987,14,false,0.0,4237.564, 4383.077, 4097.18, 4151.026, 4221.667
1722050309.9955,2024-07-26 20:18:29.995,15,false,0.0,4235.256, 4359.487, 4107.308, 4147.82, 4222.82
1722050310.0034,2024-07-26 20:18:30.003,16,false,0.0,4221.539, 4339.487, 4092.692, 4135.385, 4208.718
1722050310.0112,2024-07-26 20:18:30.011,17,false,0.0,4212.949, 4344.487, 4079.615, 4133.205, 4192.692
1722050310.019,2024-07-26 20:18:30.019,18,false,0.0,4213.077, 4350.0, 4083.718, 4146.667, 4196.41
1722050310.0268,2024-07-26 20:18:30.026,19,false,0.0,4218.846, 4357.564, 4092.821, 4160.0, 4223.461
1722050310.0346,2024-07-26 20:18:30.034,20,false,0.0,4225.897, 4349.487, 4088.718, 4165.256, 4252.436
1722050310.0424,2024-07-26 20:18:30.042,21,false,0.0,4232.949, 4327.564, 4077.051, 4170.256, 4268.461
1722050310.0502,2024-07-26 20:18:30.050,22,false,0.0,4245.769, 4340.513, 4084.744, 4177.564, 4285.256
1722050310.058,2024-07-26 20:18:30.058,23,false,0.0,4263.974, 4362.436, 4105.641, 4181.282, 4315.0
1722050310.0659,2024-07-26 20:18:30.065,24,false,0.0,4273.461, 4347.18, 4106.026, 4177.949, 4329.231
1722050310.0737,2024-07-26 20:18:30.073,25,false,0.0,4265.769, 4344.103, 4095.385, 4168.333, 4307.692
1722050310.0815,2024-07-26 20:18:30.081,26,false,0.0,4256.154, 4365.0, 4104.103, 4162.308, 4293.077
1722050310.0893,2024-07-26 20:18:30.089,27,false,0.0,4263.718, 4359.615, 4116.667, 4172.051, 4314.615
1722050310.0971,2024-07-26 20:18:30.097,28,false,0.0,4276.539, 4347.436, 4109.744, 4188.461, 4329.359
1722050310.1049,2024-07-26 20:18:30.104,29,false,0.0,4270.128, 4345.385, 4098.205, 4190.897, 4315.0
1722050310.1127,2024-07-26 20:18:30.112,30,false,0.0,4255.513, 4329.231, 4098.077, 4182.564, 4303.077
1722050310.1205,2024-07-26 20:18:30.120,31,false,0.0,4255.513, 4331.795, 4099.359, 4177.949, 4301.667
1722050310.1284,2024-07-26 20:18:30.128,32,false,0.0,4257.564, 4359.487, 4094.872, 4174.231, 4296.282
1722050310.1362,2024-07-26 20:18:30.136,33,false,0.0,4245.385, 4348.718, 4094.615, 4170.769, 4290.385
1722050310.144,2024-07-26 20:18:30.144,34,false,0.0,4235.256, 4321.154, 4102.692, 4176.282, 4287.436
1722050310.1518,2024-07-26 20:18:30.151,35,false,0.0,4239.872, 4335.641, 4111.795, 4183.333, 4288.846
1722050310.1596,2024-07-26 20:18:30.159,36,false,0.0,4247.564, 4349.744, 4118.205, 4178.59, 4296.41
1722050310.1674,2024-07-26 20:18:30.167,37,false,0.0,4251.667, 4332.436, 4121.154, 4173.077, 4299.359
1722050310.1752,2024-07-26 20:18:30.175,38,false,0.0,4254.359, 4331.667, 4118.718, 4177.564, 4295.128
1722050310.183,2024-07-26 20:18:30.183,39,false,0.0,4247.18, 4344.615, 4114.359, 4176.539, 4290.128
1722050310.1909,2024-07-26 20:18:30.190,40,false,0.0,4232.051, 4327.051, 4107.308, 4164.744, 4280.256
1722050310.1987,2024-07-26 20:18:30.198,41,false,0.0,4231.154, 4308.461, 4096.282, 4163.846, 4273.333
1722050310.2065,2024-07-26 20:18:30.206,42,false,0.0,4241.539, 4330.256, 4091.923, 4173.333, 4277.564
1722050310.2143,2024-07-26 20:18:30.214,43,false,0.0,4238.974, 4355.769, 4097.564, 4172.564, 4280.641
1722050310.2221,2024-07-26 20:18:30.222,44,false,0.0,4236.923, 4351.026, 4103.974, 4172.051, 4288.205
1722050310.2299,2024-07-26 20:18:30.229,45,false,0.0,4250.128, 4341.026, 4106.026, 4186.539, 4306.154
1722050310.2377,2024-07-26 20:18:30.237,46,false,0.0,4252.18, 4340.769, 4103.077, 4195.513, 4307.692
1722050310.2455,2024-07-26 20:18:30.245,47,false,0.0,4242.051, 4337.051, 4100.128, 4190.385, 4295.897
1722050310.2534,2024-07-26 20:18:30.253,48,false,0.0,4244.744, 4332.564, 4103.846, 4189.359, 4296.282
1722050310.2612,2024-07-26 20:18:30.261,49,false,0.0,4243.974, 4335.513, 4104.872, 4187.564, 4288.718
1722050310.269,2024-07-26 20:18:30.269,50,false,0.0,4229.231, 4340.769, 4101.026, 4174.872, 4267.949
1722050310.2768,2024-07-26 20:18:30.276,51,false,0.0,4225.385, 4340.385, 4105.641, 4169.231, 4267.564
1722050310.2846,2024-07-26 20:18:30.284,52,false,0.0,4228.974, 4334.103, 4110.256, 4178.59, 4278.333
1722050310.2924,2024-07-26 20:18:30.292,53,false,0.0,4230.897, 4340.0, 4108.974, 4185.513, 4278.718
1722050310.3002,2024-07-26 20:18:30.300,54,false,0.0,4242.949, 4364.231, 4120.0, 4187.051, 4287.82
1722050310.308,2024-07-26 20:18:30.308,55,false,0.0,4246.795, 4368.59, 4128.718, 4190.385, 4300.897
1722050310.3159,2024-07-26 20:18:30.315,56,false,0.0,4230.897, 4343.077, 4111.667, 4189.872, 4292.564
1722050310.3237,2024-07-26 20:18:30.323,57,false,0.0,4227.436, 4337.18, 4102.564, 4188.59, 4282.051
1722050310.3315,2024-07-26 20:18:30.331,58,false,0.0,4237.18, 4352.949, 4119.231, 4196.795, 4288.846
1722050310.3393,2024-07-26 20:18:30.339,59,false,0.0,4233.846, 4344.103, 4121.282, 4204.487, 4293.718
1722050310.3471,2024-07-26 20:18:30.347,60,false,0.0,4231.026, 4331.795, 4104.103, 4202.564, 4287.436
1722050310.3549,2024-07-26 20:18:30.354,61,false,0.0,4232.692, 4351.026, 4100.128, 4198.718, 4276.795
1722050310.3627,2024-07-26 20:18:30.362,62,false,0.0,4211.026, 4355.513, 4096.41, 4187.18, 4258.846
1722050310.3705,2024-07-26 20:18:30.370,63,false,0.0,4181.154, 4324.615, 4075.0, 4168.974, 4241.026
1722050310.3784,2024-07-26 20:18:30.378,64,false,0.0,4180.769, 4316.923, 4063.461, 4169.615, 4239.487
1722050310.3862,2024-07-26 20:18:30.386,65,false,0.0,4195.513, 4343.461, 4075.513, 4181.154, 4245.641
1722050310.394,2024-07-26 20:18:30.394,66,false,0.0,4200.128, 4361.923, 4092.949, 4177.18, 4247.692
1722050310.4018,2024-07-26 20:18:30.401,67,false,0.0,4205.769, 4368.205, 4106.923, 4176.923, 4255.385
1722050310.4096,2024-07-26 20:18:30.409,68,false,0.0,4211.539, 4362.82, 4109.359, 4190.256, 4262.82
1722050310.4174,2024-07-26 20:18:30.417,69,false,0.0,4202.82, 4341.282, 4101.154, 4188.59, 4255.0
1722050310.4252,2024-07-26 20:18:30.425,70,false,0.0,4200.256, 4341.795, 4109.615, 4182.308, 4254.231
1722050310.433,2024-07-26 20:18:30.433,71,false,0.0,4214.231, 4365.641, 4131.667, 4194.615, 4273.333
1722050310.4409,2024-07-26 20:18:30.440,72,false,0.0,4215.385, 4361.539, 4128.333, 4201.923, 4277.436
1722050310.4487,2024-07-26 20:18:30.448,73,false,0.0,4207.436, 4343.461, 4108.59, 4195.128, 4263.718
1722050310.4565,2024-07-26 20:18:30.456,74,false,0.0,4212.82, 4344.103, 4105.769, 4191.41, 4261.539
1722050310.4643,2024-07-26 20:18:30.464,75,false,0.0,4207.308, 4332.308, 4104.487, 4182.692, 4256.667
1722050310.4721,2024-07-26 20:18:30.472,76,false,0.0,4187.692, 4316.667, 4091.923, 4173.59, 4239.615
1722050310.4799,2024-07-26 20:18:30.479,77,false,0.0,4192.051, 4341.282, 4095.128, 4182.18, 4240.513
1722050310.4877,2024-07-26 20:18:30.487,78,false,0.0,4203.846, 4368.974, 4109.744, 4185.385, 4250.0
1722050310.4955,2024-07-26 20:18:30.495,79,false,0.0,4190.256, 4358.846, 4107.692, 4172.692, 4244.231
1722050310.5034,2024-07-26 20:18:30.503,80,false,0.0,4185.128, 4347.949, 4104.359, 4179.359, 4247.82
1722050310.5112,2024-07-26 20:18:30.511,81,false,0.0,4201.667, 4356.026, 4111.795, 4197.564, 4264.231
1722050310.519,2024-07-26 20:18:30.519,82,false,0.0,4201.154, 4354.231, 4102.051, 4191.41, 4261.667
1722050310.5268,2024-07-26 20:18:30.526,83,false,0.0,4193.461, 4339.615, 4086.41, 4183.461, 4255.641
1722050310.5346,2024-07-26 20:18:30.534,84,false,0.0,4213.59, 4340.769, 4104.487, 4199.231, 4273.333
1722050310.5424,2024-07-26 20:18:30.542,85,false,0.0,4236.795, 4358.205, 4130.128, 4209.487, 4286.923
1722050310.5502,2024-07-26 20:18:30.550,86,false,0.0,4233.974, 4360.385, 4125.513, 4198.846, 4278.205
1722050310.558,2024-07-26 20:18:30.558,87,false,0.0,4226.539, 4354.103, 4116.795, 4191.41, 4275.769
1722050310.5659,2024-07-26 20:18:30.565,88,false,0.0,4228.974, 4370.641, 4124.615, 4193.333, 4287.82
1722050310.5737,2024-07-26 20:18:30.573,89,false,0.0,4226.667, 4379.487, 4129.487, 4192.82, 4289.487
1722050310.5815,2024-07-26 20:18:30.581,90,false,0.0,4218.59, 4361.026, 4126.41, 4190.897, 4276.282
1722050310.5893,2024-07-26 20:18:30.589,91,false,0.0,4214.872, 4361.539, 4121.282, 4191.923, 4264.231
1722050310.5971,2024-07-26 20:18:30.597,92,false,0.0,4210.256, 4370.641, 4114.359, 4192.436, 4257.436
1722050310.6049,2024-07-26 20:18:30.604,93,false,0.0,4203.333, 4354.231, 4112.564, 4192.051, 4251.41
1722050310.6127,2024-07-26 20:18:30.612,94,false,0.0,4201.282, 4356.41, 4114.103, 4188.846, 4244.103
1722050310.6205,2024-07-26 20:18:30.620,95,false,0.0,4200.385, 4373.974, 4109.487, 4181.923, 4240.769
1722050310.6284,2024-07-26 20:18:30.628,96,false,0.0,4197.051, 4353.333, 4103.461, 4181.026, 4247.692
1722050310.6362,2024-07-26 20:18:30.636,97,false,0.0,4195.641, 4335.641, 4096.154, 4187.051, 4250.513
1722050310.644,2024-07-26 20:18:30.644,98,false,0.0,4192.18, 4353.59, 4084.615, 4185.641, 4238.461
1722050310.6518,2024-07-26 20:18:30.651,99,false,0.0,4188.205, 4359.615, 4085.769, 4180.769, 4235.769
1722050310.6596,2024-07-26 20:18:30.659,100,false,0.0,4191.026, 4357.564, 4097.436, 4183.59, 4244.103
1722050310.6674,2024-07-26 20:18:30.667,101,false,0.0,4186.795, 4365.128, 4093.333, 4178.718, 4227.308
1722050310.6752,2024-07-26 20:18:30.675,102,false,0.0,4171.923, 4355.513, 4082.308, 4165.0, 4201.026
1722050310.683,2024-07-26 20:18:30.683,103,false,0.0,4175.256, 4350.897, 4093.846, 4171.154, 4211.795
1722050310.6909,2024-07-26 20:18:30.690,104,false,0.0,4196.923, 4371.282, 4115.513, 4192.692, 4238.461
1722050310.6987,2024-07-26 20:18:30.698,105,false,0.0,4203.59, 4371.539, 4119.872, 4198.718, 4241.282
1722050310.7065,2024-07-26 20:18:30.706,106,false,0.0,4195.897, 4353.333, 4112.436, 4195.641, 4235.0
1722050310.7143,2024-07-26 20:18:30.714,107,false,0.0,4195.897, 4355.897, 4107.18, 4198.846, 4236.026
1722050310.7221,2024-07-26 20:18:30.722,108,false,0.0,4198.59, 4365.897, 4099.615, 4196.795, 4233.077
1722050310.7299,2024-07-26 20:18:30.729,109,false,0.0,4193.461, 4363.077, 4089.487, 4186.795, 4226.41
1722050310.7377,2024-07-26 20:18:30.737,110,false,0.0,4185.769, 4353.846, 4086.026, 4181.667, 4223.846
1722050310.7455,2024-07-26 20:18:30.745,111,false,0.0,4181.795, 4350.897, 4090.769, 4179.359, 4222.436
1722050310.7534,2024-07-26 20:18:30.753,112,false,0.0,4181.667, 4362.949, 4099.872, 4175.513, 4222.564
1722050310.7612,2024-07-26 20:18:30.761,113,false,0.0,4181.923, 4367.308, 4107.564, 4177.18, 4227.436
1722050310.769,2024-07-26 20:18:30.769,114,false,0.0,4183.077, 4352.692, 4106.282, 4184.744, 4228.718
1722050310.7768,2024-07-26 20:18:30.776,115,false,0.0,4191.282, 4356.923, 4102.82, 4192.692, 4226.923
1722050310.7846,2024-07-26 20:18:30.784,116,false,0.0,4202.564, 4376.667, 4105.513, 4199.103, 4233.077
1722050310.7924,2024-07-26 20:18:30.792,117,false,0.0,4203.974, 4373.461, 4102.051, 4198.205, 4238.333
1722050310.8002,2024-07-26 20:18:30.800,118,false,0.0,4198.846, 4370.513, 4095.385, 4188.461, 4233.333
1722050310.808,2024-07-26 20:18:30.808,119,false,0.0,4196.41, 4378.333, 4103.205, 4182.308, 4235.0
1722050310.8159,2024-07-26 20:18:30.815,120,false,0.0,4194.231, 4361.923, 4107.949, 4185.513, 4243.718
1722050310.8237,2024-07-26 20:18:30.823,121,false,0.0,4195.256, 4348.333, 4097.692, 4189.231, 4244.231
1722050310.8315,2024-07-26 20:18:30.831,122,false,0.0,4203.59, 4368.333, 4100.256, 4191.282, 4251.795
1722050310.8393,2024-07-26 20:18:30.839,123,false,0.0,4209.487, 4376.282, 4112.564, 4195.385, 4270.0
1722050310.8471,2024-07-26 20:18:30.847,124,false,0.0,4207.436, 4364.487, 4106.795, 4195.385, 4268.59
1722050310.8549,2024-07-26 20:18:30.854,125,false,0.0,4198.59, 4363.59, 4097.18, 4184.487, 4248.846
1722050310.8627,2024-07-26 20:18:30.862,126,false,0.0,4184.103, 4357.436, 4097.82, 4172.692, 4238.718
1722050310.8705,2024-07-26 20:18:30.870,127,false,0.0,4182.436, 4348.333, 4095.769, 4174.231, 4241.539
1722050310.8784,2024-07-26 20:18:30.878,0,false,0.0,4200.385, 4356.923, 4096.923, 4184.359, 4249.615
1722050310.8862,2024-07-26 20:18:30.886,1,false,0.0,4204.487, 4354.744, 4099.744, 4183.974, 4251.282
1722050310.894,2024-07-26 20:18:30.894,2,false,0.0,4190.641, 4341.539, 4085.641, 4174.872, 4238.846
1722050310.9018,2024-07-26 20:18:30.901,3,false,0.0,4193.205, 4350.385, 4079.872, 4174.615, 4231.539
1722050310.9096,2024-07-26 20:18:30.909,4,false,0.0,4201.026, 4355.385, 4099.231, 4178.974, 4235.897
1722050310.9174,2024-07-26 20:18:30.917,5,false,0.0,4191.539, 4344.231, 4105.513, 4179.359, 4237.051
1722050310.9252,2024-07-26 20:18:30.925,6,false,0.0,4194.744, 4354.231, 4100.385, 4188.333, 4242.949
1722050310.933,2024-07-26 20:18:30.933,7,false,0.0,4210.128, 4365.128, 4115.0, 4198.077, 4251.667
1722050310.9409,2024-07-26 20:18:30.940,8,false,0.0,4196.923, 4342.564, 4115.256, 4186.795, 4239.615
1722050310.9487,2024-07-26 20:18:30.948,9,false,0.0,4180.513, 4327.436, 4086.41, 4175.0, 4228.077
1722050310.9565,2024-07-26 20:18:30.956,10,false,0.0,4199.615, 4348.59, 4081.539, 4183.846, 4243.718
1722050310.9643,2024-07-26 20:18:30.964,11,false,0.0,4213.974, 4368.718, 4096.795, 4189.103, 4251.795
1722050310.9721,2024-07-26 20:18:30.972,12,false,0.0,4201.282, 4364.487, 4087.436, 4182.82, 4235.385
1722050310.9799,2024-07-26 20:18:30.979,13,false,0.0,4199.872, 4353.205, 4080.641, 4184.744, 4231.539
1722050310.9877,2024-07-26 20:18:30.987,14,false,0.0,4208.333, 4350.385, 4098.205, 4186.282, 4243.59
1722050310.9955,2024-07-26 20:18:30.995,15,false,0.0,4201.795, 4350.128, 4101.923, 4177.949, 4245.897
1722050311.0034,2024-07-26 20:18:31.003,16,false,0.0,4196.923, 4346.282, 4089.744, 4177.82, 4242.82
1722050311.0112,2024-07-26 20:18:31.011,17,false,0.0,4200.641, 4345.256, 4087.949, 4183.974, 4242.18
1722050311.019,2024-07-26 20:18:31.019,18,false,0.0,4199.231, 4347.308, 4086.795, 4182.692, 4241.539
1722050311.0268,2024-07-26 20:18:31.026,19,false,0.0,4208.205, 4345.513, 4088.333, 4187.949, 4250.769
1722050311.0346,2024-07-26 20:18:31.034,20,false,0.0,4230.641, 4350.641, 4111.923, 4200.641, 4266.154
1722050311.0424,2024-07-26 20:18:31.042,21,false,0.0,4236.282, 4371.667, 4135.641, 4202.949, 4270.0
1722050311.0502,2024-07-26 20:18:31.050,22,false,0.0,4227.051, 4385.0, 4135.0, 4201.154, 4267.436
1722050311.058,2024-07-26 20:18:31.058,23,false,0.0,4225.256, 4371.539, 4124.231, 4198.461, 4263.974
1722050311.0659,2024-07-26 20:18:31.065,24,false,0.0,4223.205, 4352.949, 4113.718, 4182.308, 4250.641
1722050311.0737,2024-07-26 20:18:31.073,25,false,0.0,4215.513, 4354.359, 4103.846, 4168.461, 4239.615
1722050311.0815,2024-07-26 20:18:31.081,26,false,0.0,4218.333, 4362.949, 4104.872, 4176.026, 4245.897
1722050311.0893,2024-07-26 20:18:31.089,27,false,0.0,4233.333, 4361.539, 4117.564, 4190.385, 4259.872
1722050311.0971,2024-07-26 20:18:31.097,28,false,0.0,4250.897, 4365.256, 4130.385, 4206.539, 4276.41
1722050311.1049,2024-07-26 20:18:31.104,29,false,0.0,4261.667, 4384.872, 4135.897, 4223.461, 4289.615
1722050311.1127,2024-07-26 20:18:31.112,30,false,0.0,4251.667, 4393.974, 4127.692, 4218.974, 4278.718
1722050311.1205,2024-07-26 20:18:31.120,31,false,0.0,4231.154, 4378.333, 4116.41, 4203.461, 4257.692
1722050311.1284,2024-07-26 20:18:31.128,32,false,0.0,4231.667, 4366.282, 4124.872, 4209.231, 4264.359
1722050311.1362,2024-07-26 20:18:31.136,33,false,0.0,4245.513, 4374.487, 4134.872, 4216.923, 4284.487
1722050311.144,2024-07-26 20:18:31.144,34,false,0.0,4244.487, 4383.974, 4119.615, 4202.692, 4285.0
1722050311.1518,2024-07-26 20:18:31.151,35,false,0.0,4242.949, 4383.846, 4110.0, 4192.051, 4282.436
1722050311.1596,2024-07-26 20:18:31.159,36,false,0.0,4254.744, 4379.744, 4127.82, 4199.359, 4293.333
1722050311.1674,2024-07-26 20:18:31.167,37,false,0.0,4255.128, 4374.487, 4130.641, 4203.718, 4290.256
1722050311.1752,2024-07-26 20:18:31.175,38,false,0.0,4238.718, 4375.897, 4105.641, 4192.82, 4266.282
1722050311.183,2024-07-26 20:18:31.183,39,false,0.0,4228.461, 4385.385, 4095.641, 4179.872, 4254.615
1722050311.1909,2024-07-26 20:18:31.190,40,false,0.0,4231.41, 4384.487, 4108.846, 4186.539, 4264.872
1722050311.1987,2024-07-26 20:18:31.198,41,false,0.0,4239.744, 4372.949, 4116.539, 4203.718, 4275.256
1722050311.2065,2024-07-26 20:18:31.206,42,false,0.0,4240.513, 4374.359, 4112.564, 4200.385, 4277.564
1722050311.2143,2024-07-26 20:18:31.214,43,false,0.0,4231.923, 4385.128, 4107.82, 4193.846, 4278.205
1722050311.2221,2024-07-26 20:18:31.222,44,false,0.0,4236.282, 4386.282, 4109.487, 4214.103, 4279.359
1722050311.2299,2024-07-26 20:18:31.229,45,false,0.0,4252.692, 4383.461, 4118.333, 4228.333, 4282.564
1722050311.2377,2024-07-26 20:18:31.237,46,false,0.0,4252.564, 4383.205, 4124.615, 4215.897, 4286.667
1722050311.2455,2024-07-26 20:18:31.245,47,false,0.0,4242.564, 4378.333, 4122.82, 4207.564, 4282.051
1722050311.2534,2024-07-26 20:18:31.253,48,false,0.0,4244.359, 4372.308, 4120.641, 4202.564, 4269.359
1722050311.2612,2024-07-26 20:18:31.261,49,false,0.0,4246.795, 4371.41, 4119.487, 4187.82, 4264.103
1722050311.269,2024-07-26 20:18:31.269,50,false,0.0,4244.487, 4371.667, 4117.436, 4188.461, 4266.154
1722050311.2768,2024-07-26 20:18:31.276,51,false,0.0,4251.795, 4376.41, 4120.769, 4205.385, 4265.769
1722050311.2846,2024-07-26 20:18:31.284,52,false,0.0,4263.205, 4386.795, 4129.103, 4209.487, 4269.744
1722050311.2924,2024-07-26 20:18:31.292,53,false,0.0,4261.923, 4388.333, 4133.718, 4203.077, 4275.128
1722050311.3002,2024-07-26 20:18:31.300,54,false,0.0,4249.487, 4376.282, 4134.744, 4199.487, 4267.051
1722050311.308,2024-07-26 20:18:31.308,55,false,0.0,4237.949, 4363.718, 4129.744, 4196.923, 4257.18
1722050311.3159,2024-07-26 20:18:31.315,56,false,0.0,4234.231, 4357.051, 4113.846, 4197.18, 4256.154
1722050311.3237,2024-07-26 20:18:31.323,57,false,0.0,4238.333, 4354.231, 4104.231, 4200.897, 4253.461
1722050311.3315,2024-07-26 20:18:31.331,58,false,0.0,4245.128, 4357.949, 4114.744, 4202.949, 4254.231
1722050311.3393,2024-07-26 20:18:31.339,59,false,0.0,4246.026, 4364.744, 4122.436, 4200.256, 4258.461
1722050311.3471,2024-07-26 20:18:31.347,60,false,0.0,4240.0, 4365.385, 4120.769, 4192.308, 4249.487
1722050311.3549,2024-07-26 20:18:31.354,61,false,0.0,4242.308, 4366.026, 4140.769, 4194.231, 4248.846
1722050311.3627,2024-07-26 20:18:31.362,62,false,0.0,4254.487, 4377.051, 4168.718, 4210.256, 4269.872
1722050311.3705,2024-07-26 20:18:31.370,63,false,0.0,4254.103, 4386.795, 4160.128, 4210.256, 4271.539
1722050311.3784,2024-07-26 20:18:31.378,64,false,0.0,4243.59, 4380.0, 4136.667, 4195.385, 4256.282
1722050311.3862,2024-07-26 20:18:31.386,65,false,0.0,4245.769, 4365.769, 4131.026, 4200.385, 4260.641
1722050311.394,2024-07-26 20:18:31.394,66,false,0.0,4250.513, 4360.897, 4118.205, 4206.154, 4261.154
1722050311.4018,2024-07-26 20:18:31.401,67,false,0.0,4242.18, 4366.539, 4100.256, 4190.128, 4248.077
1722050311.4096,2024-07-26 20:18:31.409,68,false,0.0,4238.846, 4374.231, 4109.359, 4191.026, 4256.154
1722050311.4174,2024-07-26 20:18:31.417,69,false,0.0,4249.359, 4378.59, 4122.949, 4212.949, 4270.641
1722050311.4252,2024-07-26 20:18:31.425,70,false,0.0,4256.923, 4379.487, 4121.795, 4215.769, 4270.385
1722050311.433,2024-07-26 20:18:31.433,71,false,0.0,4260.385, 4380.897, 4132.949, 4214.103, 4279.872
1722050311.4409,2024-07-26 20:18:31.440,72,false,0.0,4266.026, 4384.487, 4144.231, 4224.359, 4289.103
1722050311.4487,2024-07-26 20:18:31.448,73,false,0.0,4264.231, 4386.41, 4132.82, 4218.077, 4278.59
1722050311.4565,2024-07-26 20:18:31.456,74,false,0.0,4255.0, 4384.744, 4127.308, 4202.949, 4278.333
1722050311.4643,2024-07-26 20:18:31.464,75,false,0.0,4248.718, 4376.539, 4133.333, 4202.18, 4284.487
1722050311.4721,2024-07-26 20:18:31.472,76,false,0.0,4236.667, 4361.539, 4125.0, 4195.385, 4261.795
1722050311.4799,2024-07-26 20:18:31.479,77,false,0.0,4219.103, 4354.744, 4115.769, 4181.41, 4238.718
1722050311.4877,2024-07-26 20:18:31.487,78,false,0.0,4222.949, 4367.949, 4118.718, 4182.692, 4248.333
1722050311.4955,2024-07-26 20:18:31.495,79,false,0.0,4243.205, 4377.436, 4115.513, 4185.0, 4259.744
1722050311.5034,2024-07-26 20:18:31.503,80,false,0.0,4242.436, 4364.359, 4105.641, 4175.0, 4253.077
1722050311.5112,2024-07-26 20:18:31.511,81,false,0.0,4231.795, 4360.769, 4105.128, 4174.872, 4251.154
1722050311.519,2024-07-26 20:18:31.519,82,false,0.0,4248.077, 4387.949, 4121.41, 4191.026, 4266.923
1722050311.5268,2024-07-26 20:18:31.526,83,false,0.0,4265.513, 4403.077, 4140.385, 4202.051, 4285.256
1722050311.5346,2024-07-26 20:18:31.534,84,false,0.0,4248.846, 4380.0, 4133.333, 4199.615, 4284.872
1722050311.5424,2024-07-26 20:18:31.542,85,false,0.0,4228.205, 4358.077, 4111.154, 4194.872, 4268.718
1722050311.5502,2024-07-26 20:18:31.550,86,false,0.0,4229.103, 4356.667, 4110.641, 4193.974, 4261.026
1722050311.558,2024-07-26 20:18:31.558,87,false,0.0,4228.974, 4350.0, 4114.744, 4189.103, 4262.949
1722050311.5659,2024-07-26 20:18:31.565,88,false,0.0,4222.949, 4344.487, 4101.923, 4178.461, 4257.949
1722050311.5737,2024-07-26 20:18:31.573,89,false,0.0,4228.205, 4365.385, 4105.897, 4171.923, 4254.872
1722050311.5815,2024-07-26 20:18:31.581,90,false,0.0,4238.974, 4391.026, 4133.461, 4178.333, 4267.18
1722050311.5893,2024-07-26 20:18:31.589,91,false,0.0,4243.974, 4392.051, 4143.077, 4195.256, 4277.18
1722050311.5971,2024-07-26 20:18:31.597,92,false,0.0,4242.564, 4378.461, 4127.18, 4204.231, 4269.103
1722050311.6049,2024-07-26 20:18:31.604,93,false,0.0,4235.897, 4368.59, 4112.308, 4193.59, 4258.461
1722050311.6127,2024-07-26 20:18:31.612,94,false,0.0,4233.333, 4365.256, 4109.103, 4182.82, 4258.846
1722050311.6205,2024-07-26 20:18:31.620,95,false,0.0,4241.026, 4369.487, 4112.308, 4186.795, 4259.231
1722050311.6284,2024-07-26 20:18:31.628,96,false,0.0,4247.308, 4379.359, 4119.744, 4190.256, 4258.077
1722050311.6362,2024-07-26 20:18:31.636,97,false,0.0,4247.18, 4384.103, 4128.846, 4189.615, 4267.82
1722050311.644,2024-07-26 20:18:31.644,98,false,0.0,4245.641, 4376.282, 4128.205, 4191.026, 4275.128
1722050311.6518,2024-07-26 20:18:31.651,99,false,0.0,4241.795, 4363.205, 4116.667, 4186.026, 4267.564
1722050311.6596,2024-07-26 20:18:31.659,100,false,0.0,4241.539, 4360.513, 4113.846, 4182.949, 4268.974
1722050311.6674,2024-07-26 20:18:31.667,101,false,0.0,4249.231, 4369.103, 4121.41, 4194.103, 4279.744
1722050311.6752,2024-07-26 20:18:31.675,102,false,0.0,4249.487, 4374.744, 4119.487, 4196.41, 4269.872
1722050311.683,2024-07-26 20:18:31.683,103,false,0.0,4241.154, 4374.359, 4109.872, 4182.82, 4254.359
1722050311.6909,2024-07-26 20:18:31.690,104,false,0.0,4243.205, 4375.385, 4104.744, 4181.026, 4260.0
1722050311.6987,2024-07-26 20:18:31.698,105,false,0.0,4249.744, 4370.256, 4101.026, 4183.461, 4265.897
1722050311.7065,2024-07-26 20:18:31.706,106,false,0.0,4241.154, 4353.205, 4097.18, 4174.744, 4261.539
1722050311.7143,2024-07-26 20:18:31.714,107,false,0.0,4230.513, 4345.256, 4097.564, 4181.41, 4264.103
1722050311.7221,2024-07-26 20:18:31.722,108,false,0.0,4236.026, 4354.487, 4100.128, 4197.692, 4265.641
1722050311.7299,2024-07-26 20:18:31.729,109,false,0.0,4239.487, 4353.333, 4101.026, 4187.051, 4257.18
1722050311.7377,2024-07-26 20:18:31.737,110,false,0.0,4232.18, 4343.461, 4100.641, 4174.359, 4252.18
1722050311.7455,2024-07-26 20:18:31.745,111,false,0.0,4235.256, 4356.667, 4105.256, 4184.872, 4252.308
1722050311.7534,2024-07-26 20:18:31.753,112,false,0.0,4245.513, 4373.077, 4113.333, 4185.385, 4254.103
1722050311.7612,2024-07-26 20:18:31.761,113,false,0.0,4244.744, 4362.692, 4112.18, 4178.077, 4260.769
1722050311.769,2024-07-26 20:18:31.769,114,false,0.0,4242.82, 4356.282, 4103.461, 4188.461, 4262.18
1722050311.7768,2024-07-26 20:18:31.776,115,false,0.0,4241.923, 4367.308, 4097.82, 4189.103, 4252.051
1722050311.7846,2024-07-26 20:18:31.784,116,false,0.0,4236.282, 4365.769, 4097.051, 4181.923, 4250.256
1722050311.7924,2024-07-26 20:18:31.792,117,false,0.0,4244.872, 4360.897, 4105.128, 4203.077, 4265.0
1722050311.8002,2024-07-26 20:18:31.800,118,false,0.0,4257.692, 4368.59, 4112.051, 4214.487, 4271.41
1722050311.808,2024-07-26 20:18:31.808,119,false,0.0,4240.385, 4362.18, 4097.949, 4186.026, 4258.333
1722050311.8159,2024-07-26 20:18:31.815,120,false,0.0,4223.461, 4346.923, 4084.359, 4173.59, 4254.487
1722050311.8237,2024-07-26 20:18:31.823,121,false,0.0,4240.128, 4355.128, 4095.641, 4186.923, 4270.256
1722050311.8315,2024-07-26 20:18:31.831,122,false,0.0,4251.539, 4369.359, 4102.82, 4180.256, 4274.487
1722050311.8393,2024-07-26 20:18:31.839,123,false,0.0,4242.308, 4369.615, 4095.513, 4172.82, 4264.744
1722050311.8471,2024-07-26 20:18:31.847,124,false,0.0,4246.026, 4370.0, 4101.026, 4188.59, 4272.308
1722050311.8549,2024-07-26 20:18:31.854,125,false,0.0,4254.615, 4364.744, 4107.051, 4194.103, 4285.0
1722050311.8627,2024-07-26 20:18:31.862,126,false,0.0,4247.436, 4349.487, 4093.974, 4182.051, 4276.282
1722050311.8705,2024-07-26 20:18:31.870,127,false,0.0,4243.718, 4352.308, 4089.359, 4181.539, 4271.923
1722050311.8784,2024-07-26 20:18:31.878,0,false,0.0,4251.795, 4365.641, 4098.333, 4192.564, 4285.385
1722050311.8862,2024-07-26 20:18:31.886,1,false,0.0,4251.539, 4355.256, 4090.897, 4196.282, 4280.128
1722050311.894,2024-07-26 20:18:31.894,2,false,0.0,4242.436, 4341.539, 4080.128, 4190.256, 4257.564
1722050311.9018,2024-07-26 20:18:31.901,3,false,0.0,4243.333, 4349.872, 4095.128, 4188.59, 4262.564
1722050311.9096,2024-07-26 20:18:31.909,4,false,0.0,4254.615, 4358.846, 4112.564, 4199.487, 4285.641
1722050311.9174,2024-07-26 20:18:31.917,5,false,0.0,4258.077, 4360.897, 4106.667, 4205.256, 4281.795
1722050311.9252,2024-07-26 20:18:31.925,6,false,0.0,4248.718, 4363.59, 4096.282, 4192.308, 4259.744
1722050311.933,2024-07-26 20:18:31.933,7,false,0.0,4243.333, 4357.436, 4096.923, 4179.487, 4254.103
1722050311.9409,2024-07-26 20:18:31.940,8,false,0.0,4249.615, 4355.513, 4096.41, 4179.872, 4261.154
1722050311.9487,2024-07-26 20:18:31.948,9,false,0.0,4254.103, 4365.128, 4090.128, 4181.026, 4259.615
1722050311.9565,2024-07-26 20:18:31.956,10,false,0.0,4250.897, 4358.974, 4092.692, 4182.308, 4255.0
1722050311.9643,2024-07-26 20:18:31.964,11,false,0.0,4252.18, 4351.154, 4110.769, 4196.795, 4264.231
1722050311.9721,2024-07-26 20:18:31.972,12,false,0.0,4258.333, 4364.744, 4124.231, 4213.718, 4280.385
1722050311.9799,2024-07-26 20:18:31.979,13,false,0.0,4256.154, 4363.718, 4117.949, 4213.718, 4281.539
1722050311.9877,2024-07-26 20:18:31.987,14,false,0.0,4251.41, 4350.128, 4112.949, 4205.0, 4271.923
1722050311.9955,2024-07-26 20:18:31.995,15,false,0.0,4253.974, 4359.744, 4118.333, 4203.718, 4270.897
1722050312.0034,2024-07-26 20:18:32.003,16,false,0.0,4250.641, 4357.949, 4107.564, 4205.385, 4273.077
1722050312.0112,2024-07-26 20:18:32.011,17,false,0.0,4242.82, 4335.128, 4087.436, 4202.051, 4268.846
1722050312.019,2024-07-26 20:18:32.019,18,false,0.0,4246.923, 4340.385, 4085.641, 4191.667, 4265.0
1722050312.0268,2024-07-26 20:18:32.026,19,false,0.0,4246.282, 4350.769, 4081.282, 4174.744, 4259.615
1722050312.0346,2024-07-26 20:18:32.034,20,false,0.0,4232.564, 4338.461, 4064.487, 4166.923, 4252.308
1722050312.0424,2024-07-26 20:18:32.042,21,false,0.0,4232.82, 4347.18, 4067.564, 4175.0, 4252.82
1722050312.0502,2024-07-26 20:18:32.050,22,false,0.0,4242.18, 4361.282, 4081.41, 4176.795, 4253.974
1722050312.058,2024-07-26 20:18:32.058,23,false,0.0,4240.256, 4341.154, 4083.461, 4172.308, 4255.641
1722050312.0659,2024-07-26 20:18:32.065,24,false,0.0,4241.154, 4332.051, 4091.667, 4181.41, 4269.359
1722050312.0737,2024-07-26 20:18:32.073,25,false,0.0,4243.461, 4343.718, 4099.872, 4187.82, 4274.872
1722050312.0815,2024-07-26 20:18:32.081,26,false,0.0,4232.692, 4331.795, 4089.103, 4177.308, 4259.487
1722050312.0893,2024-07-26 20:18:32.089,27,false,0.0,4226.667, 4325.128, 4087.436, 4173.077, 4252.692
1722050312.0971,2024-07-26 20:18:32.097,28,false,0.0,4234.487, 4351.282, 4102.18, 4179.744, 4261.026
1722050312.1049,2024-07-26 20:18:32.104,29,false,0.0,4245.641, 4362.949, 4107.18, 4186.282, 4267.564
1722050312.1127,2024-07-26 20:18:32.112,30,false,0.0,4259.615, 4350.513, 4106.539, 4195.256, 4275.897
1722050312.1205,2024-07-26 20:18:32.120,31,false,0.0,4260.897, 4350.0, 4102.949, 4194.231, 4278.461
1722050312.1284,2024-07-26 20:18:32.128,32,false,0.0,4242.18, 4356.667, 4086.795, 4177.18, 4268.59
1722050312.1362,2024-07-26 20:18:32.136,33,false,0.0,4238.333, 4354.744, 4082.051, 4174.487, 4270.513
1722050312.144,2024-07-26 20:18:32.144,34,false,0.0,4254.744, 4353.974, 4093.333, 4186.667, 4283.205
1722050312.1518,2024-07-26 20:18:32.151,35,false,0.0,4255.0, 4353.205, 4091.282, 4183.846, 4279.359
1722050312.1596,2024-07-26 20:18:32.159,36,false,0.0,4242.82, 4342.18, 4087.436, 4179.872, 4271.282
1722050312.1674,2024-07-26 20:18:32.167,37,false,0.0,4247.692, 4338.077, 4101.795, 4195.769, 4283.846
1722050312.1752,2024-07-26 20:18:32.175,38,false,0.0,4259.231, 4356.667, 4106.539, 4205.513, 4297.564
1722050312.183,2024-07-26 20:18:32.183,39,false,0.0,4253.846, 4365.513, 4092.949, 4193.205, 4289.103
1722050312.1909,2024-07-26 20:18:32.190,40,false,0.0,4242.308, 4342.18, 4087.692, 4183.718, 4278.846
1722050312.1987,2024-07-26 20:18:32.198,41,false,0.0,4243.718, 4327.82, 4090.256, 4185.641, 4285.513
1722050312.2065,2024-07-26 20:18:32.206,42,false,0.0,4247.308, 4339.744, 4085.0, 4183.59, 4285.0
1722050312.2143,2024-07-26 20:18:32.214,43,false,0.0,4241.282, 4341.41, 4085.385, 4179.487, 4268.59
1722050312.2221,2024-07-26 20:18:32.222,44,false,0.0,4241.154, 4336.154, 4100.128, 4184.487, 4270.641
1722050312.2299,2024-07-26 20:18:32.229,45,false,0.0,4250.385, 4346.154, 4108.461, 4188.59, 4285.897
1722050312.2377,2024-07-26 20:18:32.237,46,false,0.0,4252.051, 4352.18, 4106.282, 4183.205, 4281.795
1722050312.2455,2024-07-26 20:18:32.245,47,false,0.0,4249.487, 4352.308, 4114.103, 4181.923, 4279.615
1722050312.2534,2024-07-26 20:18:32.253,48,false,0.0,4250.0, 4359.359, 4121.539, 4187.564, 4291.282
1722050312.2612,2024-07-26 20:18:32.261,49,false,0.0,4246.667, 4354.872, 4109.231, 4184.231, 4282.308
1722050312.269,2024-07-26 20:18:32.269,50,false,0.0,4242.949, 4348.077, 4100.769, 4174.231, 4263.59
1722050312.2768,2024-07-26 20:18:32.276,51,false,0.0,4240.769, 4360.641, 4108.077, 4171.923, 4266.026
1722050312.2846,2024-07-26 20:18:32.284,52,false,0.0,4236.282, 4366.795, 4107.692, 4174.487, 4269.487
1722050312.2924,2024-07-26 20:18:32.292,53,false,0.0,4238.59, 4360.769, 4106.41, 4177.436, 4266.795
1722050312.3002,2024-07-26 20:18:32.300,54,false,0.0,4241.154, 4362.949, 4113.59, 4181.282, 4272.949
1722050312.308,2024-07-26 20:18:32.308,55,false,0.0,4230.513, 4358.461, 4109.487, 4181.795, 4272.051
1722050312.3159,2024-07-26 20:18:32.315,56,false,0.0,4234.103, 4353.718, 4110.641, 4183.718, 4269.872
1722050312.3237,2024-07-26 20:18:32.323,57,false,0.0,4257.949, 4372.051, 4129.487, 4194.359, 4289.103
1722050312.3315,2024-07-26 20:18:32.331,58,false,0.0,4259.231, 4377.308, 4124.872, 4199.231, 4297.82
1722050312.3393,2024-07-26 20:18:32.339,59,false,0.0,4243.333, 4359.487, 4107.051, 4190.641, 4279.615
1722050312.3471,2024-07-26 20:18:32.347,60,false,0.0,4249.872, 4363.59, 4121.539, 4190.0, 4280.0
1722050312.3549,2024-07-26 20:18:32.354,61,false,0.0,4264.615, 4375.641, 4131.923, 4201.026, 4299.231
1722050312.3627,2024-07-26 20:18:32.362,62,false,0.0,4264.359, 4366.667, 4112.692, 4202.051, 4297.82
1722050312.3705,2024-07-26 20:18:32.370,63,false,0.0,4260.385, 4364.103, 4109.872, 4198.461, 4287.051
1722050312.3784,2024-07-26 20:18:32.378,64,false,0.0,4255.769, 4369.487, 4117.564, 4203.718, 4285.769
1722050312.3862,2024-07-26 20:18:32.386,65,false,0.0,4247.308, 4363.077, 4105.385, 4199.359, 4280.769
1722050312.394,2024-07-26 20:18:32.394,66,false,0.0,4241.154, 4362.308, 4103.718, 4182.308, 4272.436
1722050312.4018,2024-07-26 20:18:32.401,67,false,0.0,4236.282, 4368.846, 4119.103, 4180.513, 4269.359
1722050312.4096,2024-07-26 20:18:32.409,68,false,0.0,4236.795, 4368.846, 4122.18, 4192.18, 4269.487
1722050312.4174,2024-07-26 20:18:32.417,69,false,0.0,4243.974, 4369.872, 4122.564, 4196.154, 4272.82
1722050312.4252,2024-07-26 20:18:32.425,70,false,0.0,4242.82, 4366.923, 4123.205, 4195.128, 4269.872
1722050312.433,2024-07-26 20:18:32.433,71,false,0.0,4241.41, 4365.641, 4114.103, 4192.82, 4260.128
1722050312.4409,2024-07-26 20:18:32.440,72,false,0.0,4256.41, 4389.231, 4120.128, 4189.872, 4268.077
1722050312.4487,2024-07-26 20:18:32.448,73,false,0.0,4265.897, 4401.026, 4133.846, 4192.436, 4281.41
1722050312.4565,2024-07-26 20:18:32.456,74,false,0.0,4257.82, 4376.795, 4120.385, 4192.692, 4272.692
1722050312.4643,2024-07-26 20:18:32.464,75,false,0.0,4258.205, 4373.077, 4110.385, 4188.974, 4271.026
1722050312.4721,2024-07-26 20:18:32.472,76,false,0.0,4266.539, 4388.461, 4124.872, 4195.128, 4287.308
1722050312.4799,2024-07-26 20:18:32.479,77,false,0.0,4260.385, 4370.769, 4121.282, 4197.949, 4280.0
1722050312.4877,2024-07-26 20:18:32.487,78,false,0.0,4248.59, 4358.205, 4105.641, 4185.385, 4262.82
1722050312.4955,2024-07-26 20:18:32.495,79,false,0.0,4245.0, 4377.564, 4111.154, 4182.18, 4271.667
1722050312.5034,2024-07-26 20:18:32.503,80,false,0.0,4244.744, 4379.103, 4113.205, 4188.846, 4275.641
1722050312.5112,2024-07-26 20:18:32.511,81,false,0.0,4246.026, 4373.333, 4104.615, 4183.333, 4263.461
1722050312.519,2024-07-26 20:18:32.519,82,false,0.0,4248.974, 4384.359, 4110.769, 4178.974, 4273.205
1722050312.5268,2024-07-26 20:18:32.526,83,false,0.0,4249.487, 4369.872, 4113.333, 4187.308, 4294.231
1722050312.5346,2024-07-26 20:18:32.534,84,false,0.0,4255.385, 4347.436, 4105.769, 4192.18, 4299.615
1722050312.5424,2024-07-26 20:18:32.542,85,false,0.0,4269.615, 4365.897, 4117.692, 4194.872, 4307.18
1722050312.5502,2024-07-26 20:18:32.550,86,false,0.0,4274.487, 4382.308, 4133.333, 4205.256, 4317.949
1722050312.558,2024-07-26 20:18:32.558,87,false,0.0,4267.308, 4373.333, 4130.0, 4212.308, 4313.718
1722050312.5659,2024-07-26 20:18:32.565,88,false,0.0,4265.385, 4378.461, 4130.128, 4208.718, 4308.205
1722050312.5737,2024-07-26 20:18:32.573,89,false,0.0,4266.667, 4381.667, 4134.872, 4203.974, 4313.59
1722050312.5815,2024-07-26 20:18:32.581,90,false,0.0,4263.077, 4364.615, 4128.333, 4206.539, 4321.667
1722050312.5893,2024-07-26 20:18:32.589,91,false,0.0,4267.692, 4370.128, 4127.82, 4212.436, 4331.282
1722050312.5971,2024-07-26 20:18:32.597,92,false,0.0,4278.846, 4394.872, 4138.974, 4210.897, 4337.564
1722050312.6049,2024-07-26 20:18:32.604,93,false,0.0,4274.487, 4393.59, 4142.051, 4205.897, 4334.744
1722050312.6127,2024-07-26 20:18:32.612,94,false,0.0,4265.256, 4377.564, 4137.692, 4210.641, 4332.18
1722050312.6205,2024-07-26 20:18:32.620,95,false,0.0,4274.615, 4377.051, 4138.077, 4217.692, 4335.897
1722050312.6284,2024-07-26 20:18:32.628,96,false,0.0,4285.256, 4384.872, 4142.564, 4217.308, 4342.564
1722050312.6362,2024-07-26 20:18:32.636,97,false,0.0,4282.051, 4388.59, 4144.359, 4217.949, 4349.103
1722050312.644,2024-07-26 20:18:32.644,98,false,0.0,4280.897, 4386.795, 4140.256, 4219.231, 4347.308
1722050312.6518,2024-07-26 20:18:32.651,99,false,0.0,4281.282, 4378.846, 4138.333, 4210.256, 4339.744
1722050312.6596,2024-07-26 20:18:32.659,100,false,0.0,4270.513, 4370.128, 4139.103, 4200.385, 4340.256
1722050312.6674,2024-07-26 20:18:32.667,101,false,0.0,4263.461, 4367.051, 4128.718, 4200.385, 4341.795
1722050312.6752,2024-07-26 20:18:32.675,102,false,0.0,4270.641, 4368.333, 4116.282, 4204.487, 4333.846
1722050312.683,2024-07-26 20:18:32.683,103,false,0.0,4276.026, 4374.615, 4119.231, 4211.154, 4329.615
1722050312.6909,2024-07-26 20:18:32.690,104,false,0.0,4273.718, 4385.128, 4121.41, 4218.718, 4330.513
1722050312.6987,2024-07-26 20:18:32.698,105,false,0.0,4271.667, 4391.539, 4115.769, 4212.949, 4325.513
1722050312.7065,2024-07-26 20:18:32.706,106,false,0.0,4268.333, 4391.026, 4122.18, 4199.744, 4324.231
1722050312.7143,2024-07-26 20:18:32.714,107,false,0.0,4264.359, 4387.308, 4129.744, 4201.667, 4331.154
1722050312.7221,2024-07-26 20:18:32.722,108,false,0.0,4267.692, 4376.795, 4120.256, 4210.897, 4330.641
1722050312.7299,2024-07-26 20:18:32.729,109,false,0.0,4270.385, 4361.795, 4109.872, 4206.923, 4321.41
1722050312.7377,2024-07-26 20:18:32.737,110,false,0.0,4261.154, 4356.667, 4103.846, 4195.641, 4309.872
1722050312.7455,2024-07-26 20:18:32.745,111,false,0.0,4253.718, 4361.154, 4095.641, 4189.103, 4297.692
1722050312.7534,2024-07-26 20:18:32.753,112,false,0.0,4264.103, 4367.051, 4101.539, 4188.59, 4298.974
1722050312.7612,2024-07-26 20:18:32.761,113,false,0.0,4277.564, 4378.077, 4118.333, 4195.385, 4313.205
1722050312.769,2024-07-26 20:18:32.769,114,false,0.0,4273.077, 4381.923, 4116.795, 4200.769, 4311.41
1722050312.7768,2024-07-26 20:18:32.776,115,false,0.0,4258.205, 4361.026, 4104.872, 4194.487, 4295.769
1722050312.7846,2024-07-26 20:18:32.784,116,false,0.0,4254.359, 4344.359, 4105.128, 4188.333, 4297.436
1722050312.7924,2024-07-26 20:18:32.792,117,false,0.0,4264.103, 4364.359, 4108.59, 4192.82, 4307.692
1722050312.8002,2024-07-26 20:18:32.800,118,false,0.0,4270.0, 4386.923, 4106.41, 4193.59, 4302.692
1722050312.808,2024-07-26 20:18:32.808,119,false,0.0,4262.564, 4378.205, 4104.231, 4187.18, 4294.872
1722050312.8159,2024-07-26 20:18:32.815,120,false,0.0,4257.564, 4371.282, 4104.103, 4190.641, 4295.897
1722050312.8237,2024-07-26 20:18:32.823,121,false,0.0,4268.461, 4388.974, 4113.333, 4203.846, 4295.128
1722050312.8315,2024-07-26 20:18:32.831,122,false,0.0,4279.487, 4397.18, 4128.077, 4208.461, 4292.18
1722050312.8393,2024-07-26 20:18:32.839,123,false,0.0,4271.923, 4381.667, 4122.949, 4201.41, 4287.051
1722050312.8471,2024-07-26 20:18:32.847,124,false,0.0,4256.539, 4373.718, 4104.359, 4193.974, 4273.846
1722050312.8549,2024-07-26 20:18:32.854,125,false,0.0,4257.436, 4382.692, 4108.205, 4197.308, 4270.897
1722050312.8627,2024-07-26 20:18:32.862,126,false,0.0,4269.103, 4379.872, 4121.539, 4208.59, 4285.513
1722050312.8705,2024-07-26 20:18:32.870,127,false,0.0,4261.795, 4354.744, 4105.641, 4207.564, 4282.82
1722050312.8784,2024-07-26 20:18:32.878,0,false,0.0,4242.18, 4338.59, 4082.949, 4193.718, 4258.846
1722050312.8862,2024-07-26 20:18:32.886,1,false,0.0,4247.308, 4357.18, 4093.974, 4193.077, 4254.744
1722050312.894,2024-07-26 20:18:32.894,2,false,0.0,4263.333, 4382.82, 4112.308, 4199.103, 4264.487
1722050312.9018,2024-07-26 20:18:32.901,3,false,0.0,4257.949, 4381.667, 4104.103, 4190.641, 4253.59
1722050312.9096,2024-07-26 20:18:32.909,4,false,0.0,4253.974, 4372.051, 4095.897, 4186.154, 4237.692
1722050312.9174,2024-07-26 20:18:32.917,5,false,0.0,4264.744, 4371.795, 4106.154, 4193.59, 4238.333
1722050312.9252,2024-07-26 20:18:32.925,6,false,0.0,4259.103, 4363.846, 4108.333, 4188.59, 4238.59
1722050312.933,2024-07-26 20:18:32.933,7,false,0.0,4241.41, 4349.744, 4096.795, 4178.205, 4230.0
1722050312.9409,2024-07-26 20:18:32.940,8,false,0.0,4240.769, 4347.564, 4093.718, 4181.41, 4223.461
1722050312.9487,2024-07-26 20:18:32.948,9,false,0.0,4247.564, 4351.539, 4102.18, 4185.0, 4223.461
1722050312.9565,2024-07-26 20:18:32.956,10,false,0.0,4250.641, 4351.41, 4111.539, 4187.564, 4229.872
1722050312.9643,2024-07-26 20:18:32.964,11,false,0.0,4259.103, 4351.282, 4116.41, 4199.487, 4235.897
1722050312.9721,2024-07-26 20:18:32.972,12,false,0.0,4269.615, 4362.051, 4120.128, 4208.333, 4236.41
1722050312.9799,2024-07-26 20:18:32.979,13,false,0.0,4275.769, 4385.0, 4127.18, 4206.795, 4240.128
1722050312.9877,2024-07-26 20:18:32.987,14,false,0.0,4276.41, 4389.359, 4126.795, 4204.231, 4244.744
1722050312.9955,2024-07-26 20:18:32.995,15,false,0.0,4267.18, 4364.872, 4111.539, 4199.359, 4234.103
1722050313.0034,2024-07-26 20:18:33.003,16,false,0.0,4255.641, 4358.718, 4101.795, 4187.82, 4213.59
1722050313.0112,2024-07-26 20:18:33.011,17,false,0.0,4252.308, 4375.769, 4108.077, 4177.564, 4202.692
1722050313.019,2024-07-26 20:18:33.019,18,false,0.0,4251.41, 4368.205, 4109.359, 4175.641, 4201.667
1722050313.0268,2024-07-26 20:18:33.026,19,false,0.0,4250.385, 4354.103, 4101.282, 4179.103, 4202.564
1722050313.0346,2024-07-26 20:18:33.034,20,false,0.0,4253.974, 4367.18, 4103.205, 4181.667, 4203.59
1722050313.0424,2024-07-26 20:18:33.042,21,false,0.0,4254.872, 4368.333, 4113.59, 4180.128, 4202.692
1722050313.0502,2024-07-26 20:18:33.050,22,false,0.0,4246.41, 4348.461, 4111.923, 4175.641, 4198.718
1722050313.058,2024-07-26 20:18:33.058,23,false,0.0,4239.359, 4348.333, 4098.461, 4174.231, 4197.051
1722050313.0659,2024-07-26 20:18:33.065,24,false,0.0,4241.41, 4355.385, 4092.436, 4181.282, 4198.333
1722050313.0737,2024-07-26 20:18:33.073,25,false,0.0,4244.487, 4349.103, 4097.564, 4186.667, 4198.077
1722050313.0815,2024-07-26 20:18:33.081,26,false,0.0,4245.641, 4357.82, 4104.231, 4181.667, 4201.41
1722050313.0893,2024-07-26 20:18:33.089,27,false,0.0,4251.154, 4378.59, 4110.0, 4177.82, 4210.513
1722050313.0971,2024-07-26 20:18:33.097,28,false,0.0,4257.82, 4379.744, 4110.769, 4183.205, 4215.513
1722050313.1049,2024-07-26 20:18:33.104,29,false,0.0,4257.949, 4368.59, 4103.846, 4188.718, 4213.846
1722050313.1127,2024-07-26 20:18:33.112,30,false,0.0,4257.18, 4369.744, 4099.103, 4187.949, 4211.41
1722050313.1205,2024-07-26 20:18:33.120,31,false,0.0,4261.539, 4381.795, 4100.641, 4183.718, 4210.513
1722050313.1284,2024-07-26 20:18:33.128,32,false,0.0,4261.026, 4382.949, 4100.641, 4180.385, 4210.0
1722050313.1362,2024-07-26 20:18:33.136,33,false,0.0,4247.436, 4362.308, 4096.282, 4179.103, 4205.0
1722050313.144,2024-07-26 20:18:33.144,34,false,0.0,4235.897, 4347.692, 4090.385, 4178.077, 4195.897
1722050313.1518,2024-07-26 20:18:33.151,35,false,0.0,4247.308, 4363.59, 4093.846, 4184.359, 4202.051
1722050313.1596,2024-07-26 20:18:33.159,36,false,0.0,4270.128, 4384.103, 4111.41, 4198.461, 4223.205
1722050313.1674,2024-07-26 20:18:33.167,37,false,0.0,4271.923, 4378.718, 4116.282, 4198.974, 4224.231
1722050313.1752,2024-07-26 20:18:33.175,38,false,0.0,4258.461, 4363.333, 4099.359, 4187.051, 4203.846
1722050313.183,2024-07-26 20:18:33.183,39,false,0.0,4262.949, 4370.385, 4097.436, 4186.795, 4199.744
1722050313.1909,2024-07-26 20:18:33.190,40,false,0.0,4273.59, 4390.128, 4112.692, 4188.077, 4207.82
1722050313.1987,2024-07-26 20:18:33.198,41,false,0.0,4259.744, 4381.795, 4110.897, 4176.923, 4200.769
1722050313.2065,2024-07-26 20:18:33.206,42,false,0.0,4241.923, 4354.487, 4103.205, 4175.769, 4194.872
1722050313.2143,2024-07-26 20:18:33.214,43,false,0.0,4246.923, 4354.744, 4109.231, 4186.154, 4204.744
1722050313.2221,2024-07-26 20:18:33.222,44,false,0.0,4256.026, 4371.154, 4108.59, 4184.615, 4206.539
1722050313.2299,2024-07-26 20:18:33.229,45,false,0.0,4257.18, 4376.026, 4105.897, 4182.692, 4201.795
1722050313.2377,2024-07-26 20:18:33.237,46,false,0.0,4262.564, 4388.077, 4120.513, 4196.282, 4214.231
1722050313.2455,2024-07-26 20:18:33.245,47,false,0.0,4263.974, 4399.231, 4124.487, 4202.692, 4225.641
1722050313.2534,2024-07-26 20:18:33.253,48,false,0.0,4250.385, 4378.461, 4103.205, 4186.923, 4209.615
1722050313.2612,2024-07-26 20:18:33.261,49,false,0.0,4235.769, 4352.82, 4094.231, 4170.256, 4188.846
1722050313.269,2024-07-26 20:18:33.269,50,false,0.0,4231.026, 4356.154, 4105.256, 4167.564, 4189.615
1722050313.2768,2024-07-26 20:18:33.276,51,false,0.0,4228.846, 4365.256, 4103.718, 4168.718, 4197.308
1722050313.2846,2024-07-26 20:18:33.284,52,false,0.0,4229.359, 4360.0, 4093.077, 4167.436, 4198.205
1722050313.2924,2024-07-26 20:18:33.292,53,false,0.0,4241.667, 4362.692, 4102.308, 4172.051, 4207.564
1722050313.3002,2024-07-26 20:18:33.300,54,false,0.0,4256.026, 4382.051, 4118.846, 4179.359, 4225.0
1722050313.308,2024-07-26 20:18:33.308,55,false,0.0,4247.949, 4381.539, 4108.59, 4176.667, 4220.769
1722050313.3159,2024-07-26 20:18:33.315,56,false,0.0,4226.795, 4356.026, 4083.974, 4172.82, 4199.872
1722050313.3237,2024-07-26 20:18:33.323,57,false,0.0,4227.82, 4355.769, 4081.923, 4181.026, 4200.385
1722050313.3315,2024-07-26 20:18:33.331,58,false,0.0,4244.103, 4379.872, 4096.282, 4190.128, 4213.974
1722050313.3393,2024-07-26 20:18:33.339,59,false,0.0,4246.923, 4382.564, 4103.59, 4188.718, 4211.154
1722050313.3471,2024-07-26 20:18:33.347,60,false,0.0,4247.308, 4374.744, 4111.026, 4187.82, 4212.436
1722050313.3549,2024-07-26 20:18:33.354,61,false,0.0,4260.513, 4374.487, 4118.974, 4196.539, 4230.128
1722050313.3627,2024-07-26 20:18:33.362,62,false,0.0,4269.487, 4369.744, 4112.436, 4203.846, 4234.359
1722050313.3705,2024-07-26 20:18:33.370,63,false,0.0,4270.897, 4376.795, 4106.026, 4200.256, 4227.949
1722050313.3784,2024-07-26 20:18:33.378,64,false,0.0,4274.359, 4391.923, 4112.949, 4193.205, 4234.359
1722050313.3862,2024-07-26 20:18:33.386,65,false,0.0,4269.615, 4379.615, 4109.744, 4191.282, 4238.077
1722050313.394,2024-07-26 20:18:33.394,66,false,0.0,4262.308, 4367.692, 4097.949, 4194.487, 4232.949
1722050313.4018,2024-07-26 20:18:33.401,67,false,0.0,4276.539, 4386.41, 4109.744, 4203.077, 4242.051
1722050313.4096,2024-07-26 20:18:33.409,68,false,0.0,4290.128, 4393.333, 4126.667, 4205.513, 4252.436
1722050313.4174,2024-07-26 20:18:33.417,69,false,0.0,4267.949, 4375.513, 4110.256, 4189.103, 4238.59
1722050313.4252,2024-07-26 20:18:33.425,70,false,0.0,4246.154, 4369.744, 4089.487, 4179.487, 4227.051
1722050313.433,2024-07-26 20:18:33.433,71,false,0.0,4261.667, 4376.026, 4098.59, 4197.564, 4241.282
1722050313.4409,2024-07-26 20:18:33.440,72,false,0.0,4274.744, 4374.872, 4109.487, 4210.641, 4252.692
1722050313.4487,2024-07-26 20:18:33.448,73,false,0.0,4265.256, 4373.333, 4108.205, 4205.897, 4249.615
1722050313.4565,2024-07-26 20:18:33.456,74,false,0.0,4265.0, 4378.333, 4112.82, 4206.923, 4251.539
1722050313.4643,2024-07-26 20:18:33.464,75,false,0.0,4265.769, 4380.897, 4108.718, 4200.0, 4246.282
1722050313.4721,2024-07-26 20:18:33.472,76,false,0.0,4254.872, 4379.103, 4093.718, 4184.231, 4230.641
1722050313.4799,2024-07-26 20:18:33.479,77,false,0.0,4263.718, 4381.282, 4097.308, 4198.461, 4240.641
1722050313.4877,2024-07-26 20:18:33.487,78,false,0.0,4279.744, 4381.41, 4101.41, 4216.539, 4258.461
1722050313.4955,2024-07-26 20:18:33.495,79,false,0.0,4268.333, 4372.692, 4088.846, 4201.923, 4245.256
1722050313.5034,2024-07-26 20:18:33.503,80,false,0.0,4261.539, 4374.615, 4097.18, 4199.231, 4242.82
1722050313.5112,2024-07-26 20:18:33.511,81,false,0.0,4276.923, 4392.051, 4119.103, 4216.282, 4273.974
1722050313.519,2024-07-26 20:18:33.519,82,false,0.0,4278.846, 4396.539, 4113.846, 4207.051, 4283.718
1722050313.5268,2024-07-26 20:18:33.526,83,false,0.0,4269.231, 4384.359, 4105.641, 4193.59, 4270.385
1722050313.5346,2024-07-26 20:18:33.534,84,false,0.0,4270.256, 4378.974, 4114.872, 4204.615, 4276.282
1722050313.5424,2024-07-26 20:18:33.542,85,false,0.0,4273.461, 4380.641, 4112.564, 4211.41, 4286.795
1722050313.5502,2024-07-26 20:18:33.550,86,false,0.0,4272.051, 4377.18, 4100.897, 4205.385, 4278.718
1722050313.558,2024-07-26 20:18:33.558,87,false,0.0,4261.539, 4372.564, 4094.615, 4192.18, 4263.974
1722050313.5659,2024-07-26 20:18:33.565,88,false,0.0,4245.513, 4371.539, 4083.974, 4171.026, 4254.487
1722050313.5737,2024-07-26 20:18:33.573,89,false,0.0,4246.795, 4368.974, 4077.179, 4167.18, 4255.641
1722050313.5815,2024-07-26 20:18:33.581,90,false,0.0,4255.897, 4363.205, 4083.461, 4182.82, 4259.103
1722050313.5893,2024-07-26 20:18:33.589,91,false,0.0,4250.128, 4363.59, 4089.359, 4191.539, 4258.077
1722050313.5971,2024-07-26 20:18:33.597,92,false,0.0,4250.897, 4369.359, 4092.692, 4199.872, 4268.59
1722050313.6049,2024-07-26 20:18:33.604,93,false,0.0,4263.461, 4368.974, 4094.744, 4206.539, 4280.641
1722050313.6127,2024-07-26 20:18:33.612,94,false,0.0,4260.128, 4368.077, 4093.333, 4197.949, 4270.513
1722050313.6205,2024-07-26 20:18:33.620,95,false,0.0,4252.436, 4374.103, 4095.897, 4193.59, 4260.513
1722050313.6284,2024-07-26 20:18:33.628,96,false,0.0,4255.641, 4376.41, 4099.359, 4193.461, 4266.154
1722050313.6362,2024-07-26 20:18:33.636,97,false,0.0,4252.308, 4373.461, 4098.974, 4183.974, 4267.692
1722050313.644,2024-07-26 20:18:33.644,98,false,0.0,4249.103, 4369.744, 4100.897, 4187.82, 4266.667
1722050313.6518,2024-07-26 20:18:33.651,99,false,0.0,4258.59, 4362.051, 4100.385, 4197.308, 4266.795
1722050313.6596,2024-07-26 20:18:33.659,100,false,0.0,4261.923, 4360.0, 4098.077, 4187.564, 4260.385
1722050313.6674,2024-07-26 20:18:33.667,101,false,0.0,4259.231, 4370.641, 4104.487, 4189.744, 4262.82
1722050313.6752,2024-07-26 20:18:33.675,102,false,0.0,4267.051, 4383.846, 4107.051, 4209.487, 4271.923
1722050313.683,2024-07-26 20:18:33.683,103,false,0.0,4271.923, 4398.333, 4101.154, 4205.385, 4264.487
1722050313.6909,2024-07-26 20:18:33.690,104,false,0.0,4260.897, 4400.513, 4101.026, 4187.692, 4254.872
1722050313.6987,2024-07-26 20:18:33.698,105,false,0.0,4251.026, 4376.539, 4099.231, 4185.128, 4259.231
1722050313.7065,2024-07-26 20:18:33.706,106,false,0.0,4259.615, 4364.231, 4096.923, 4188.077, 4266.026
1722050313.7143,2024-07-26 20:18:33.714,107,false,0.0,4271.795, 4381.154, 4107.692, 4189.231, 4271.795
1722050313.7221,2024-07-26 20:18:33.722,108,false,0.0,4262.82, 4381.41, 4112.82, 4188.205, 4269.872
1722050313.7299,2024-07-26 20:18:33.729,109,false,0.0,4246.667, 4365.769, 4105.256, 4184.744, 4256.667
1722050313.7377,2024-07-26 20:18:33.737,110,false,0.0,4250.256, 4370.769, 4105.256, 4187.436, 4253.974
1722050313.7455,2024-07-26 20:18:33.745,111,false,0.0,4259.744, 4373.718, 4104.872, 4192.18, 4264.103
1722050313.7534,2024-07-26 20:18:33.753,112,false,0.0,4260.256, 4360.385, 4096.539, 4191.923, 4265.256
1722050313.7612,2024-07-26 20:18:33.761,113,false,0.0,4260.513, 4360.385, 4086.282, 4188.974, 4256.795
1722050313.769,2024-07-26 20:18:33.769,114,false,0.0,4253.846, 4366.026, 4067.949, 4180.0, 4244.744
1722050313.7768,2024-07-26 20:18:33.776,115,false,0.0,4245.641, 4365.769, 4065.513, 4179.359, 4236.923
1722050313.7846,2024-07-26 20:18:33.784,116,false,0.0,4255.385, 4377.18, 4098.333, 4196.795, 4243.974
1722050313.7924,2024-07-26 20:18:33.792,117,false,0.0,4260.0, 4381.923, 4113.718, 4198.461, 4245.769
1722050313.8002,2024-07-26 20:18:33.800,118,false,0.0,4244.615, 4371.539, 4095.897, 4181.795, 4231.539
1722050313.808,2024-07-26 20:18:33.808,119,false,0.0,4242.436, 4381.026, 4097.692, 4183.846, 4233.718
1722050313.8159,2024-07-26 20:18:33.815,120,false,0.0,4250.256, 4389.103, 4110.128, 4192.436, 4247.949
1722050313.8237,2024-07-26 20:18:33.823,121,false,0.0,4244.872, 4363.846, 4098.59, 4187.82, 4242.82
1722050313.8315,2024-07-26 20:18:33.831,122,false,0.0,4248.846, 4352.308, 4091.923, 4189.231, 4236.539
1722050313.8393,2024-07-26 20:18:33.839,123,false,0.0,4261.026, 4362.564, 4100.769, 4188.461, 4242.949
1722050313.8471,2024-07-26 20:18:33.847,124,false,0.0,4249.103, 4347.564, 4094.231, 4174.359, 4235.641
1722050313.8549,2024-07-26 20:18:33.854,125,false,0.0,4234.615, 4339.615, 4078.59, 4173.333, 4221.795
1722050313.8627,2024-07-26 20:18:33.862,126,false,0.0,4242.82, 4369.615, 4077.308, 4183.461, 4222.308
1722050313.8705,2024-07-26 20:18:33.870,127,false,0.0,4245.0, 4380.128, 4083.846, 4180.0, 4219.744
1722050313.8784,2024-07-26 20:18:33.878,0,false,0.0,4232.692, 4361.667, 4085.0, 4173.846, 4211.282
1722050313.8862,2024-07-26 20:18:33.886,1,false,0.0,4233.846, 4365.256, 4083.718, 4179.103, 4217.949
1722050313.894,2024-07-26 20:18:33.894,2,false,0.0,4245.385, 4375.128, 4088.59, 4186.795, 4226.667
1722050313.9018,2024-07-26 20:18:33.901,3,false,0.0,4240.641, 4361.539, 4092.308, 4184.872, 4217.82
1722050313.9096,2024-07-26 20:18:33.909,4,false,0.0,4225.385, 4354.103, 4083.461, 4171.795, 4210.385
1722050313.9174,2024-07-26 20:18:33.917,5,false,0.0,4227.436, 4365.385, 4078.974, 4166.923, 4220.256
1722050313.9252,2024-07-26 20:18:33.925,6,false,0.0,4243.974, 4366.539, 4088.718, 4177.436, 4231.154
1722050313.933,2024-07-26 20:18:33.933,7,false,0.0,4247.949, 4356.282, 4088.718, 4176.282, 4233.077
1722050313.9409,2024-07-26 20:18:33.940,8,false,0.0,4243.974, 4358.974, 4081.282, 4170.256, 4236.026
1722050313.9487,2024-07-26 20:18:33.948,9,false,0.0,4253.333, 4374.487, 4094.487, 4189.744, 4241.539
1722050313.9565,2024-07-26 20:18:33.956,10,false,0.0,4261.667, 4382.82, 4109.487, 4204.615, 4240.256
1722050313.9643,2024-07-26 20:18:33.964,11,false,0.0,4252.436, 4379.487, 4098.333, 4186.923, 4235.513
1722050313.9721,2024-07-26 20:18:33.972,12,false,0.0,4245.641, 4374.872, 4087.436, 4176.154, 4237.18
1722050313.9799,2024-07-26 20:18:33.979,13,false,0.0,4252.18, 4374.615, 4095.0, 4185.513, 4239.487
1722050313.9877,2024-07-26 20:18:33.987,14,false,0.0,4249.487, 4371.282, 4093.077, 4179.487, 4228.718
1722050313.9955,2024-07-26 20:18:33.995,15,false,0.0,4230.0, 4358.205, 4075.256, 4163.205, 4211.41
1722050314.0034,2024-07-26 20:18:34.003,16,false,0.0,4222.82, 4347.949, 4068.205, 4166.41, 4210.513
1722050314.0112,2024-07-26 20:18:34.011,17,false,0.0,4239.744, 4353.333, 4074.487, 4179.231, 4223.974
1722050314.019,2024-07-26 20:18:34.019,18,false,0.0,4247.18, 4360.0, 4074.359, 4178.461, 4224.103
1722050314.0268,2024-07-26 20:18:34.026,19,false,0.0,4231.923, 4358.333, 4069.487, 4170.513, 4214.872
1722050314.0346,2024-07-26 20:18:34.034,20,false,0.0,4227.692, 4356.026, 4073.205, 4172.564, 4220.385
1722050314.0424,2024-07-26 20:18:34.042,21,false,0.0,4239.872, 4348.333, 4079.487, 4182.308, 4226.282
1722050314.0502,2024-07-26 20:18:34.050,22,false,0.0,4242.18, 4341.539, 4082.692, 4186.795, 4218.846
1722050314.058,2024-07-26 20:18:34.058,23,false,0.0,4240.256, 4355.385, 4090.897, 4186.923, 4220.256
1722050314.0659,2024-07-26 20:18:34.065,24,false,0.0,4240.769, 4363.333, 4094.231, 4185.385, 4224.487
1722050314.0737,2024-07-26 20:18:34.073,25,false,0.0,4230.513, 4345.641, 4081.539, 4176.667, 4212.051
1722050314.0815,2024-07-26 20:18:34.081,26,false,0.0,4223.846, 4343.077, 4075.641, 4166.41, 4208.718
1722050314.0893,2024-07-26 20:18:34.089,27,false,0.0,4232.18, 4357.82, 4085.385, 4161.667, 4223.846
1722050314.0971,2024-07-26 20:18:34.097,28,false,0.0,4234.103, 4351.41, 4085.513, 4160.256, 4225.641
1722050314.1049,2024-07-26 20:18:34.104,29,false,0.0,4230.641, 4346.923, 4075.641, 4165.769, 4217.82
1722050314.1127,2024-07-26 20:18:34.112,30,false,0.0,4233.846, 4365.385, 4072.308, 4172.436, 4217.051
1722050314.1205,2024-07-26 20:18:34.120,31,false,0.0,4231.154, 4365.641, 4068.59, 4168.846, 4210.769
1722050314.1284,2024-07-26 20:18:34.128,32,false,0.0,4229.231, 4347.949, 4067.949, 4169.359, 4206.923
1722050314.1362,2024-07-26 20:18:34.136,33,false,0.0,4242.051, 4353.333, 4081.923, 4182.051, 4222.051
1722050314.144,2024-07-26 20:18:34.144,34,false,0.0,4245.769, 4365.513, 4092.308, 4187.436, 4234.231
1722050314.1518,2024-07-26 20:18:34.151,35,false,0.0,4235.641, 4357.436, 4089.103, 4186.667, 4231.795
1722050314.1596,2024-07-26 20:18:34.159,36,false,0.0,4240.0, 4349.487, 4091.539, 4191.795, 4229.744
1722050314.1674,2024-07-26 20:18:34.167,37,false,0.0,4249.103, 4352.436, 4099.103, 4190.0, 4225.897
1722050314.1752,2024-07-26 20:18:34.175,38,false,0.0,4244.487, 4354.744, 4097.18, 4181.923, 4218.205
1722050314.183,2024-07-26 20:18:34.183,39,false,0.0,4245.385, 4361.026, 4093.205, 4181.923, 4220.256
1722050314.1909,2024-07-26 20:18:34.190,40,false,0.0,4252.308, 4368.59, 4095.641, 4178.846, 4225.769
1722050314.1987,2024-07-26 20:18:34.198,41,false,0.0,4241.154, 4360.385, 4094.103, 4169.103, 4217.82
1722050314.2065,2024-07-26 20:18:34.206,42,false,0.0,4228.846, 4350.513, 4086.923, 4172.82, 4206.923
1722050314.2143,2024-07-26 20:18:34.214,43,false,0.0,4240.256, 4356.667, 4089.359, 4184.103, 4212.051
1722050314.2221,2024-07-26 20:18:34.222,44,false,0.0,4249.744, 4357.82, 4098.59, 4179.744, 4225.0
1722050314.2299,2024-07-26 20:18:34.229,45,false,0.0,4236.154, 4345.513, 4095.385, 4170.0, 4225.385
1722050314.2377,2024-07-26 20:18:34.237,46,false,0.0,4225.385, 4342.564, 4086.923, 4173.461, 4215.769
1722050314.2455,2024-07-26 20:18:34.245,47,false,0.0,4231.795, 4346.923, 4090.897, 4181.41, 4216.41
1722050314.2534,2024-07-26 20:18:34.253,48,false,0.0,4240.897, 4350.385, 4098.718, 4189.103, 4229.487
1722050314.2612,2024-07-26 20:18:34.261,49,false,0.0,4246.795, 4360.513, 4096.539, 4200.641, 4235.256
1722050314.269,2024-07-26 20:18:34.269,50,false,0.0,4241.539, 4359.359, 4083.974, 4195.897, 4218.59
1722050314.2768,2024-07-26 20:18:34.276,51,false,0.0,4217.82, 4340.769, 4069.744, 4169.872, 4188.333
1722050314.2846,2024-07-26 20:18:34.284,52,false,0.0,4204.231, 4345.0, 4074.744, 4163.718, 4177.308
1722050314.2924,2024-07-26 20:18:34.292,53,false,0.0,4222.308, 4368.974, 4098.846, 4186.026, 4196.154
1722050314.3002,2024-07-26 20:18:34.300,54,false,0.0,4240.0, 4368.461, 4111.667, 4192.692, 4211.026
1722050314.308,2024-07-26 20:18:34.308,55,false,0.0,4235.385, 4353.974, 4109.615, 4178.461, 4205.0
1722050314.3159,2024-07-26 20:18:34.315,56,false,0.0,4226.41, 4352.82, 4109.359, 4174.487, 4198.718
1722050314.3237,2024-07-26 20:18:34.323,57,false,0.0,4220.513, 4352.308, 4102.051, 4176.667, 4194.872
1722050314.3315,2024-07-26 20:18:34.331,58,false,0.0,4213.077, 4346.154, 4088.718, 4169.487, 4185.769
1722050314.3393,2024-07-26 20:18:34.339,59,false,0.0,4210.256, 4339.231, 4085.641, 4162.692, 4186.667
1722050314.3471,2024-07-26 20:18:34.347,60,false,0.0,4213.077, 4330.641, 4084.103, 4165.513, 4197.949
1722050314.3549,2024-07-26 20:18:34.354,61,false,0.0,4218.333, 4332.436, 4079.744, 4173.333, 4200.256
1722050314.3627,2024-07-26 20:18:34.362,62,false,0.0,4226.282, 4347.051, 4086.795, 4179.359, 4196.667
1722050314.3705,2024-07-26 20:18:34.370,63,false,0.0,4228.59, 4355.256, 4099.872, 4181.026, 4199.359
1722050314.3784,2024-07-26 20:18:34.378,64,false,0.0,4225.641, 4357.308, 4107.308, 4179.103, 4205.897
1722050314.3862,2024-07-26 20:18:34.386,65,false,0.0,4229.359, 4360.128, 4107.82, 4171.923, 4210.128
1722050314.394,2024-07-26 20:18:34.394,66,false,0.0,4234.359, 4351.026, 4103.333, 4162.82, 4208.974
1722050314.4018,2024-07-26 20:18:34.401,67,false,0.0,4233.461, 4334.744, 4103.59, 4166.539, 4209.359
1722050314.4096,2024-07-26 20:18:34.409,68,false,0.0,4238.077, 4337.18, 4107.308, 4181.795, 4218.59
1722050314.4174,2024-07-26 20:18:34.417,69,false,0.0,4247.308, 4353.974, 4102.18, 4189.487, 4224.359
1722050314.4252,2024-07-26 20:18:34.425,70,false,0.0,4245.385, 4358.461, 4098.974, 4186.667, 4218.718
1722050314.433,2024-07-26 20:18:34.433,71,false,0.0,4234.744, 4350.641, 4104.744, 4182.436, 4214.744
1722050314.4409,2024-07-26 20:18:34.440,72,false,0.0,4229.615, 4348.718, 4105.256, 4180.513, 4217.564
1722050314.4487,2024-07-26 20:18:34.448,73,false,0.0,4234.744, 4355.385, 4105.769, 4185.0, 4223.333
1722050314.4565,2024-07-26 20:18:34.456,74,false,0.0,4241.539, 4360.641, 4110.641, 4190.897, 4229.231
1722050314.4643,2024-07-26 20:18:34.464,75,false,0.0,4241.41, 4361.41, 4103.59, 4184.744, 4226.154
1722050314.4721,2024-07-26 20:18:34.472,76,false,0.0,4239.872, 4363.718, 4096.923, 4172.949, 4219.744
1722050314.4799,2024-07-26 20:18:34.479,77,false,0.0,4244.744, 4371.795, 4106.154, 4173.077, 4226.026
1722050314.4877,2024-07-26 20:18:34.487,78,false,0.0,4252.18, 4375.897, 4112.436, 4182.308, 4233.59
1722050314.4955,2024-07-26 20:18:34.495,79,false,0.0,4258.974, 4371.41, 4116.539, 4190.513, 4233.974
1722050314.5034,2024-07-26 20:18:34.503,80,false,0.0,4261.026, 4372.18, 4129.744, 4196.41, 4240.513
1722050314.5112,2024-07-26 20:18:34.511,81,false,0.0,4252.82, 4377.692, 4128.59, 4198.718, 4245.256
1722050314.519,2024-07-26 20:18:34.519,82,false,0.0,4245.128, 4370.385, 4112.82, 4196.667, 4236.154
1722050314.5268,2024-07-26 20:18:34.526,83,false,0.0,4246.154, 4356.026, 4110.769, 4192.692, 4230.128
1722050314.5346,2024-07-26 20:18:34.534,84,false,0.0,4243.461, 4353.333, 4111.41, 4187.18, 4229.103
1722050314.5424,2024-07-26 20:18:34.542,85,false,0.0,4237.18, 4360.897, 4103.077, 4182.949, 4220.769
1722050314.5502,2024-07-26 20:18:34.550,86,false,0.0,4239.103, 4367.692, 4107.051, 4180.513, 4216.154
1722050314.558,2024-07-26 20:18:34.558,87,false,0.0,4240.128, 4366.923, 4116.539, 4175.256, 4221.026
1722050314.5659,2024-07-26 20:18:34.565,88,false,0.0,4232.18, 4357.308, 4108.974, 4169.872, 4218.077
1722050314.5737,2024-07-26 20:18:34.573,89,false,0.0,4225.641, 4347.692, 4099.744, 4170.0, 4209.359
1722050314.5815,2024-07-26 20:18:34.581,90,false,0.0,4228.59, 4344.487, 4101.154, 4175.641, 4215.385
1722050314.5893,2024-07-26 20:18:34.589,91,false,0.0,4238.077, 4343.59, 4099.231, 4186.026, 4232.436
1722050314.5971,2024-07-26 20:18:34.597,92,false,0.0,4245.897, 4347.18, 4095.769, 4196.154, 4239.487
1722050314.6049,2024-07-26 20:18:34.604,93,false,0.0,4245.128, 4362.18, 4105.0, 4199.872, 4236.923
1722050314.6127,2024-07-26 20:18:34.612,94,false,0.0,4244.231, 4373.461, 4119.103, 4203.333, 4237.82
1722050314.6205,2024-07-26 20:18:34.620,95,false,0.0,4245.513, 4362.436, 4118.077, 4201.923, 4232.051
1722050314.6284,2024-07-26 20:18:34.628,96,false,0.0,4234.615, 4348.59, 4100.128, 4181.923, 4213.077
1722050314.6362,2024-07-26 20:18:34.636,97,false,0.0,4218.59, 4352.692, 4087.564, 4166.282, 4205.897
1722050314.644,2024-07-26 20:18:34.644,98,false,0.0,4220.513, 4357.308, 4094.487, 4178.718, 4216.667
1722050314.6518,2024-07-26 20:18:34.651,99,false,0.0,4233.59, 4358.205, 4105.769, 4192.436, 4222.436
1722050314.6596,2024-07-26 20:18:34.659,100,false,0.0,4240.513, 4367.949, 4110.513, 4188.718, 4226.154
1722050314.6674,2024-07-26 20:18:34.667,101,false,0.0,4243.846, 4363.205, 4114.872, 4188.718, 4239.744
1722050314.6752,2024-07-26 20:18:34.675,102,false,0.0,4244.103, 4346.282, 4112.82, 4192.692, 4242.564
1722050314.683,2024-07-26 20:18:34.683,103,false,0.0,4237.436, 4356.923, 4100.769, 4183.333, 4227.308
1722050314.6909,2024-07-26 20:18:34.690,104,false,0.0,4234.744, 4370.128, 4098.461, 4176.41, 4223.205
1722050314.6987,2024-07-26 20:18:34.698,105,false,0.0,4243.59, 4354.872, 4108.461, 4188.718, 4238.718
1722050314.7065,2024-07-26 20:18:34.706,106,false,0.0,4255.641, 4357.436, 4111.667, 4198.333, 4247.692
1722050314.7143,2024-07-26 20:18:34.714,107,false,0.0,4258.077, 4376.282, 4107.051, 4185.641, 4241.154
1722050314.7221,2024-07-26 20:18:34.722,108,false,0.0,4245.897, 4358.461, 4099.872, 4170.0, 4231.539
1722050314.7299,2024-07-26 20:18:34.729,109,false,0.0,4234.615, 4338.205, 4091.667, 4174.103, 4225.897
1722050314.7377,2024-07-26 20:18:34.737,110,false,0.0,4240.769, 4355.513, 4097.82, 4185.256, 4229.231
1722050314.7455,2024-07-26 20:18:34.745,111,false,0.0,4246.026, 4363.461, 4114.615, 4183.333, 4238.205
1722050314.7534,2024-07-26 20:18:34.753,112,false,0.0,4238.205, 4348.205, 4112.564, 4176.923, 4240.513
1722050314.7612,2024-07-26 20:18:34.761,113,false,0.0,4240.256, 4349.359, 4095.385, 4177.308, 4238.718
1722050314.769,2024-07-26 20:18:34.769,114,false,0.0,4248.333, 4358.59, 4088.974, 4176.667, 4238.461
1722050314.7768,2024-07-26 20:18:34.776,115,false,0.0,4238.846, 4353.077, 4093.205, 4172.18, 4233.333
1722050314.7846,2024-07-26 20:18:34.784,116,false,0.0,4231.41, 4343.718, 4098.974, 4173.205, 4229.872
1722050314.7924,2024-07-26 20:18:34.792,117,false,0.0,4238.846, 4343.205, 4105.513, 4176.026, 4234.744
1722050314.8002,2024-07-26 20:18:34.800,118,false,0.0,4235.256, 4353.461, 4112.18, 4170.0, 4235.0
1722050314.808,2024-07-26 20:18:34.808,119,false,0.0,4226.667, 4362.436, 4122.436, 4165.128, 4236.41
1722050314.8159,2024-07-26 20:18:34.815,120,false,0.0,4236.923, 4360.256, 4133.333, 4176.154, 4249.744
1722050314.8237,2024-07-26 20:18:34.823,121,false,0.0,4246.923, 4365.897, 4133.59, 4189.231, 4252.82
1722050314.8315,2024-07-26 20:18:34.831,122,false,0.0,4239.615, 4374.231, 4126.667, 4184.359, 4240.0
1722050314.8393,2024-07-26 20:18:34.839,123,false,0.0,4231.154, 4354.744, 4117.949, 4174.615, 4231.795
1722050314.8471,2024-07-26 20:18:34.847,124,false,0.0,4227.436, 4334.872, 4104.103, 4174.872, 4223.077
1722050314.8549,2024-07-26 20:18:34.854,125,false,0.0,4222.564, 4350.128, 4099.103, 4171.539, 4211.282
1722050314.8627,2024-07-26 20:18:34.862,126,false,0.0,4218.718, 4363.846, 4111.154, 4159.359, 4213.205
1722050314.8705,2024-07-26 20:18:34.870,127,false,0.0,4215.385, 4353.974, 4115.385, 4153.077, 4217.18
1722050314.8784,2024-07-26 20:18:34.878,0,false,0.0,4214.615, 4349.744, 4108.718, 4154.231, 4212.82
1722050314.8862,2024-07-26 20:18:34.886,1,false,0.0,4221.539, 4355.897, 4119.487, 4158.718, 4223.461
1722050314.894,2024-07-26 20:18:34.894,2,false,0.0,4227.949, 4358.333, 4135.0, 4171.282, 4242.564
