Time,Timestamp,Counter,Interpolated,Contact Quality,AF3,T7,Pz,T8,AF4
1722050688.4877,2024-07-26 20:24:48.487,78,false,0.0,4236.795, 4363.846, 4092.821, 4167.051, 4275.128
1722050688.4955,2024-07-26 20:24:48.495,79,false,0.0,4233.974, 4362.436, 4095.256, 4177.692, 4273.974
1722050688.5034,2024-07-26 20:24:48.503,80,false,0.0,4234.744, 4355.513, 4086.154, 4173.461, 4281.154
1722050688.5112,2024-07-26 20:24:48.511,81,false,0.0,4233.461, 4358.205, 4077.179, 4158.974, 4281.282
1722050688.519,2024-07-26 20:24:48.519,82,false,0.0,4241.41, 4378.846, 4090.0, 4166.41, 4287.051
1722050688.5268,2024-07-26 20:24:48.526,83,false,0.0,4243.974, 4380.128, 4098.333, 4174.744, 4299.744
1722050688.5346,2024-07-26 20:24:48.534,84,false,0.0,4239.103, 4365.128, 4096.667, 4167.949, 4309.231
1722050688.5424,2024-07-26 20:24:48.542,85,false,0.0,4248.59, 4366.154, 4101.41, 4168.205, 4315.897
1722050688.5502,2024-07-26 20:24:48.550,86,false,0.0,4260.128, 4373.205, 4101.026, 4172.82, 4319.231
1722050688.558,2024-07-26 20:24:48.558,87,false,0.0,4257.051, 4372.82, 4097.051, 4169.359, 4320.641
1722050688.5659,2024-07-26 20:24:48.565,88,false,0.0,4252.051, 4369.359, 4098.333, 4170.0, 4326.41
1722050688.5737,2024-07-26 20:24:48.573,89,false,0.0,4248.461, 4361.026, 4091.026, 4177.308, 4329.872
1722050688.5815,2024-07-26 20:24:48.581,90,false,0.0,4241.667, 4354.744, 4081.667, 4179.359, 4322.949
1722050688.5893,2024-07-26 20:24:48.589,91,false,0.0,4237.308, 4357.82, 4082.308, 4173.846, 4312.82
1722050688.5971,2024-07-26 20:24:48.597,92,false,0.0,4231.026, 4360.769, 4077.308, 4162.051, 4304.615
1722050688.6049,2024-07-26 20:24:48.604,93,false,0.0,4219.359, 4360.385, 4071.667, 4150.0, 4297.949
1722050688.6127,2024-07-26 20:24:48.612,94,false,0.0,4217.692, 4358.077, 4082.692, 4151.41, 4299.231
1722050688.6205,2024-07-26 20:24:48.620,95,false,0.0,4231.795, 4358.461, 4096.795, 4165.641, 4311.923
1722050688.6284,2024-07-26 20:24:48.628,96,false,0.0,4245.385, 4374.615, 4105.0, 4175.385, 4326.41
1722050688.6362,2024-07-26 20:24:48.636,97,false,0.0,4245.897, 4389.615, 4111.923, 4175.256, 4329.872
1722050688.644,2024-07-26 20:24:48.644,98,false,0.0,4240.769, 4379.103, 4110.769, 4173.205, 4319.744
1722050688.6518,2024-07-26 20:24:48.651,99,false,0.0,4241.667, 4367.436, 4107.436, 4173.59, 4311.539
1722050688.6596,2024-07-26 20:24:48.659,100,false,0.0,4246.539, 4373.205, 4112.051, 4176.154, 4317.308
1722050688.6674,2024-07-26 20:24:48.667,101,false,0.0,4244.103, 4373.718, 4112.308, 4174.872, 4320.385
1722050688.6752,2024-07-26 20:24:48.675,102,false,0.0,4232.82, 4369.359, 4104.872, 4167.051, 4310.897
1722050688.683,2024-07-26 20:24:48.683,103,false,0.0,4227.308, 4372.692, 4102.949, 4167.564, 4309.359
1722050688.6909,2024-07-26 20:24:48.690,104,false,0.0,4238.461, 4368.718, 4105.0, 4178.461, 4317.564
1722050688.6987,2024-07-26 20:24:48.698,105,false,0.0,4248.846, 4358.333, 4103.718, 4178.461, 4312.436
1722050688.7065,2024-07-26 20:24:48.706,106,false,0.0,4241.154, 4359.615, 4099.615, 4168.974, 4297.18
1722050688.7143,2024-07-26 20:24:48.714,107,false,0.0,4230.897, 4366.667, 4095.769, 4164.487, 4288.846
1722050688.7221,2024-07-26 20:24:48.722,108,false,0.0,4228.333, 4366.795, 4096.026, 4156.539, 4283.59
1722050688.7299,2024-07-26 20:24:48.729,109,false,0.0,4224.231, 4361.923, 4098.205, 4149.231, 4277.692
1722050688.7377,2024-07-26 20:24:48.737,110,false,0.0,4227.308, 4360.0, 4100.128, 4159.231, 4278.461
1722050688.7455,2024-07-26 20:24:48.745,111,false,0.0,4241.795, 4365.897, 4105.513, 4172.308, 4286.539
1722050688.7534,2024-07-26 20:24:48.753,112,false,0.0,4245.0, 4366.026, 4101.539, 4175.256, 4292.308
1722050688.7612,2024-07-26 20:24:48.761,113,false,0.0,4236.539, 4353.974, 4080.256, 4175.897, 4284.744
1722050688.769,2024-07-26 20:24:48.769,114,false,0.0,4236.923, 4350.385, 4072.179, 4173.077, 4273.461
1722050688.7768,2024-07-26 20:24:48.776,115,false,0.0,4243.461, 4355.897, 4088.846, 4169.615, 4277.564
1722050688.7846,2024-07-26 20:24:48.784,116,false,0.0,4245.128, 4351.923, 4097.308, 4169.359, 4282.18
1722050688.7924,2024-07-26 20:24:48.792,117,false,0.0,4240.897, 4349.103, 4092.308, 4159.744, 4269.231
1722050688.8002,2024-07-26 20:24:48.800,118,false,0.0,4230.897, 4355.385, 4092.949, 4148.974, 4258.333
1722050688.808,2024-07-26 20:24:48.808,119,false,0.0,4220.128, 4352.564, 4089.359, 4154.103, 4253.59
1722050688.8159,2024-07-26 20:24:48.815,120,false,0.0,4215.128, 4343.333, 4079.615, 4157.308, 4236.667
1722050688.8237,2024-07-26 20:24:48.823,121,false,0.0,4214.872, 4344.359, 4085.128, 4152.18, 4225.769
1722050688.8315,2024-07-26 20:24:48.831,122,false,0.0,4218.59, 4349.487, 4099.872, 4158.205, 4233.461
1722050688.8393,2024-07-26 20:24:48.839,123,false,0.0,4223.974, 4352.564, 4105.513, 4167.308, 4234.231
1722050688.8471,2024-07-26 20:24:48.847,124,false,0.0,4226.41, 4359.487, 4110.385, 4168.59, 4231.41
1722050688.8549,2024-07-26 20:24:48.854,125,false,0.0,4230.0, 4365.385, 4119.615, 4177.436, 4246.282
1722050688.8627,2024-07-26 20:24:48.862,126,false,0.0,4237.692, 4365.0, 4121.923, 4189.615, 4257.82
1722050688.8705,2024-07-26 20:24:48.870,127,false,0.0,4242.18, 4366.795, 4121.026, 4186.282, 4247.436
1722050688.8784,2024-07-26 20:24:48.878,0,false,0.0,4240.0, 4372.82, 4127.692, 4175.256, 4235.0
1722050688.8862,2024-07-26 20:24:48.886,1,false,0.0,4240.385, 4375.385, 4135.385, 4175.0, 4238.718
1722050688.894,2024-07-26 20:24:48.894,2,false,0.0,4245.769, 4371.795, 4134.615, 4183.718, 4249.872
1722050688.9018,2024-07-26 20:24:48.901,3,false,0.0,4244.231, 4365.897, 4129.359, 4186.539, 4251.282
1722050688.9096,2024-07-26 20:24:48.909,4,false,0.0,4236.667, 4365.256, 4127.051, 4180.513, 4243.718
1722050688.9174,2024-07-26 20:24:48.917,5,false,0.0,4239.103, 4373.461, 4127.82, 4176.539, 4241.795
1722050688.9252,2024-07-26 20:24:48.925,6,false,0.0,4245.897, 4373.846, 4121.154, 4175.513, 4243.333
1722050688.933,2024-07-26 20:24:48.933,7,false,0.0,4238.333, 4356.667, 4100.0, 4169.487, 4236.539
1722050688.9409,2024-07-26 20:24:48.940,8,false,0.0,4223.846, 4346.795, 4078.461, 4159.487, 4224.744
1722050688.9487,2024-07-26 20:24:48.948,9,false,0.0,4219.359, 4354.872, 4076.539, 4154.872, 4218.718
1722050688.9565,2024-07-26 20:24:48.956,10,false,0.0,4223.461, 4358.205, 4092.051, 4160.769, 4223.59
1722050688.9643,2024-07-26 20:24:48.964,11,false,0.0,4227.564, 4355.256, 4105.513, 4169.615, 4231.282
1722050688.9721,2024-07-26 20:24:48.972,12,false,0.0,4230.385, 4359.103, 4108.333, 4172.949, 4232.051
1722050688.9799,2024-07-26 20:24:48.979,13,false,0.0,4238.846, 4359.359, 4108.846, 4178.718, 4235.641
1722050688.9877,2024-07-26 20:24:48.987,14,false,0.0,4250.641, 4355.769, 4114.359, 4188.59, 4244.359
1722050688.9955,2024-07-26 20:24:48.995,15,false,0.0,4251.41, 4360.513, 4117.82, 4187.436, 4242.564
1722050689.0034,2024-07-26 20:24:49.003,16,false,0.0,4241.795, 4361.282, 4110.513, 4179.103, 4237.82
1722050689.0112,2024-07-26 20:24:49.011,17,false,0.0,4234.231, 4348.718, 4095.385, 4175.256, 4236.154
1722050689.019,2024-07-26 20:24:49.019,18,false,0.0,4229.487, 4343.846, 4085.897, 4172.564, 4221.026
1722050689.0268,2024-07-26 20:24:49.026,19,false,0.0,4232.82, 4356.154, 4093.974, 4176.41, 4214.103
1722050689.0346,2024-07-26 20:24:49.034,20,false,0.0,4245.513, 4367.436, 4108.718, 4185.385, 4236.026
1722050689.0424,2024-07-26 20:24:49.042,21,false,0.0,4245.641, 4367.18, 4104.231, 4181.154, 4242.051
1722050689.0502,2024-07-26 20:24:49.050,22,false,0.0,4234.103, 4364.359, 4088.846, 4177.82, 4217.949
1722050689.058,2024-07-26 20:24:49.058,23,false,0.0,4235.769, 4359.231, 4089.231, 4191.026, 4209.231
1722050689.0659,2024-07-26 20:24:49.065,24,false,0.0,4239.103, 4342.949, 4094.231, 4188.846, 4212.436
1722050689.0737,2024-07-26 20:24:49.073,25,false,0.0,4227.564, 4327.692, 4088.846, 4167.564, 4200.256
1722050689.0815,2024-07-26 20:24:49.081,26,false,0.0,4221.667, 4332.564, 4093.205, 4168.077, 4194.872
1722050689.0893,2024-07-26 20:24:49.089,27,false,0.0,4226.154, 4345.128, 4103.974, 4182.564, 4204.615
1722050689.0971,2024-07-26 20:24:49.097,28,false,0.0,4222.18, 4347.308, 4095.0, 4179.487, 4205.0
1722050689.1049,2024-07-26 20:24:49.104,29,false,0.0,4218.461, 4347.436, 4084.487, 4175.897, 4200.769
1722050689.1127,2024-07-26 20:24:49.112,30,false,0.0,4226.923, 4351.282, 4093.205, 4185.128, 4203.846
1722050689.1205,2024-07-26 20:24:49.120,31,false,0.0,4229.231, 4352.051, 4096.282, 4182.308, 4201.41
1722050689.1284,2024-07-26 20:24:49.128,32,false,0.0,4218.974, 4356.154, 4086.539, 4166.795, 4195.385
1722050689.1362,2024-07-26 20:24:49.136,33,false,0.0,4212.564, 4362.308, 4084.615, 4161.923, 4194.231
1722050689.144,2024-07-26 20:24:49.144,34,false,0.0,4212.436, 4354.872, 4084.744, 4164.872, 4185.513
1722050689.1518,2024-07-26 20:24:49.151,35,false,0.0,4213.205, 4347.436, 4082.564, 4161.923, 4174.103
1722050689.1596,2024-07-26 20:24:49.159,36,false,0.0,4219.872, 4358.077, 4093.205, 4158.718, 4182.051
1722050689.1674,2024-07-26 20:24:49.167,37,false,0.0,4226.667, 4367.436, 4104.231, 4161.539, 4196.923
1722050689.1752,2024-07-26 20:24:49.175,38,false,0.0,4222.051, 4362.692, 4095.769, 4167.051, 4197.308
1722050689.183,2024-07-26 20:24:49.183,39,false,0.0,4214.103, 4351.539, 4081.667, 4167.564, 4189.872
1722050689.1909,2024-07-26 20:24:49.190,40,false,0.0,4216.41, 4337.308, 4077.564, 4162.051, 4184.744
1722050689.1987,2024-07-26 20:24:49.198,41,false,0.0,4227.949, 4335.641, 4085.256, 4165.769, 4188.333
1722050689.2065,2024-07-26 20:24:49.206,42,false,0.0,4238.333, 4353.077, 4100.256, 4177.82, 4202.82
1722050689.2143,2024-07-26 20:24:49.214,43,false,0.0,4235.385, 4358.077, 4101.282, 4169.615, 4203.718
1722050689.2221,2024-07-26 20:24:49.222,44,false,0.0,4219.487, 4343.205, 4083.333, 4149.231, 4184.103
1722050689.2299,2024-07-26 20:24:49.229,45,false,0.0,4211.154, 4333.846, 4073.461, 4153.718, 4177.18
1722050689.2377,2024-07-26 20:24:49.237,46,false,0.0,4217.18, 4331.923, 4074.872, 4164.872, 4183.974
1722050689.2455,2024-07-26 20:24:49.245,47,false,0.0,4223.333, 4335.385, 4073.846, 4157.308, 4181.667
1722050689.2534,2024-07-26 20:24:49.253,48,false,0.0,4228.846, 4347.051, 4079.615, 4158.846, 4185.256
1722050689.2612,2024-07-26 20:24:49.261,49,false,0.0,4237.692, 4352.82, 4089.359, 4174.103, 4201.026
1722050689.269,2024-07-26 20:24:49.269,50,false,0.0,4238.974, 4352.82, 4087.949, 4172.82, 4203.461
1722050689.2768,2024-07-26 20:24:49.276,51,false,0.0,4232.308, 4356.41, 4087.051, 4165.0, 4193.333
1722050689.2846,2024-07-26 20:24:49.284,52,false,0.0,4231.282, 4355.897, 4095.641, 4165.897, 4191.41
1722050689.2924,2024-07-26 20:24:49.292,53,false,0.0,4237.051, 4358.718, 4102.308, 4162.436, 4203.333
1722050689.3002,2024-07-26 20:24:49.300,54,false,0.0,4244.487, 4366.923, 4103.333, 4161.667, 4220.897
1722050689.308,2024-07-26 20:24:49.308,55,false,0.0,4252.82, 4362.051, 4104.872, 4173.974, 4229.103
1722050689.3159,2024-07-26 20:24:49.315,56,false,0.0,4260.0, 4360.513, 4113.718, 4185.641, 4229.487
1722050689.3237,2024-07-26 20:24:49.323,57,false,0.0,4264.359, 4377.436, 4125.385, 4191.026, 4235.256
1722050689.3315,2024-07-26 20:24:49.331,58,false,0.0,4259.359, 4380.128, 4114.359, 4187.436, 4231.026
1722050689.3393,2024-07-26 20:24:49.339,59,false,0.0,4238.718, 4365.769, 4082.564, 4170.641, 4206.667
1722050689.3471,2024-07-26 20:24:49.347,60,false,0.0,4221.923, 4365.128, 4072.308, 4160.385, 4189.103
1722050689.3549,2024-07-26 20:24:49.354,61,false,0.0,4228.461, 4371.923, 4090.385, 4168.333, 4189.744
1722050689.3627,2024-07-26 20:24:49.362,62,false,0.0,4243.205, 4376.41, 4103.205, 4179.744, 4200.128
1722050689.3705,2024-07-26 20:24:49.370,63,false,0.0,4246.41, 4382.308, 4102.308, 4187.436, 4214.231
1722050689.3784,2024-07-26 20:24:49.378,64,false,0.0,4239.487, 4374.615, 4094.744, 4185.513, 4210.385
1722050689.3862,2024-07-26 20:24:49.386,65,false,0.0,4231.795, 4356.026, 4082.436, 4171.154, 4190.897
1722050689.394,2024-07-26 20:24:49.394,66,false,0.0,4233.59, 4352.564, 4079.103, 4168.333, 4198.59
1722050689.4018,2024-07-26 20:24:49.401,67,false,0.0,4246.539, 4364.487, 4094.615, 4184.744, 4228.077
1722050689.4096,2024-07-26 20:24:49.409,68,false,0.0,4257.564, 4380.256, 4115.256, 4197.692, 4238.333
1722050689.4174,2024-07-26 20:24:49.417,69,false,0.0,4258.077, 4386.154, 4120.0, 4199.615, 4232.051
1722050689.4252,2024-07-26 20:24:49.425,70,false,0.0,4247.436, 4366.41, 4104.359, 4192.82, 4220.513
1722050689.433,2024-07-26 20:24:49.433,71,false,0.0,4234.615, 4348.461, 4092.949, 4179.359, 4204.744
1722050689.4409,2024-07-26 20:24:49.440,72,false,0.0,4232.949, 4360.897, 4102.692, 4174.744, 4203.59
1722050689.4487,2024-07-26 20:24:49.448,73,false,0.0,4235.513, 4372.436, 4111.539, 4179.487, 4213.205
1722050689.4565,2024-07-26 20:24:49.456,74,false,0.0,4236.41, 4371.923, 4110.641, 4182.051, 4214.487
1722050689.4643,2024-07-26 20:24:49.464,75,false,0.0,4248.461, 4379.103, 4116.667, 4183.59, 4216.667
1722050689.4721,2024-07-26 20:24:49.472,76,false,0.0,4255.769, 4370.256, 4116.282, 4175.769, 4213.59
1722050689.4799,2024-07-26 20:24:49.479,77,false,0.0,4243.59, 4350.513, 4104.103, 4163.718, 4198.077
1722050689.4877,2024-07-26 20:24:49.487,78,false,0.0,4241.539, 4364.487, 4109.487, 4172.051, 4201.923
1722050689.4955,2024-07-26 20:24:49.495,79,false,0.0,4251.154, 4374.487, 4118.59, 4180.513, 4219.615
1722050689.5034,2024-07-26 20:24:49.503,80,false,0.0,4247.308, 4353.333, 4106.795, 4172.18, 4215.897
1722050689.5112,2024-07-26 20:24:49.511,81,false,0.0,4251.154, 4361.282, 4108.077, 4182.436, 4212.949
1722050689.519,2024-07-26 20:24:49.519,82,false,0.0,4266.923, 4386.41, 4124.103, 4202.692, 4227.564
1722050689.5268,2024-07-26 20:24:49.526,83,false,0.0,4263.59, 4374.744, 4116.923, 4195.0, 4230.0
1722050689.5346,2024-07-26 20:24:49.534,84,false,0.0,4253.333, 4367.82, 4105.128, 4182.436, 4221.026
1722050689.5424,2024-07-26 20:24:49.542,85,false,0.0,4248.718, 4374.615, 4107.692, 4180.385, 4215.769
1722050689.5502,2024-07-26 20:24:49.550,86,false,0.0,4233.461, 4351.539, 4100.641, 4174.487, 4205.769
1722050689.558,2024-07-26 20:24:49.558,87,false,0.0,4223.59, 4338.077, 4093.077, 4175.769, 4196.282
1722050689.5659,2024-07-26 20:24:49.565,88,false,0.0,4225.769, 4357.18, 4099.615, 4175.128, 4191.539
1722050689.5737,2024-07-26 20:24:49.573,89,false,0.0,4217.564, 4358.846, 4097.692, 4158.59, 4186.41
1722050689.5815,2024-07-26 20:24:49.581,90,false,0.0,4213.077, 4351.539, 4092.949, 4156.026, 4191.667
1722050689.5893,2024-07-26 20:24:49.589,91,false,0.0,4224.103, 4358.333, 4104.872, 4170.0, 4206.923
1722050689.5971,2024-07-26 20:24:49.597,92,false,0.0,4230.128, 4352.436, 4112.051, 4173.59, 4215.897
1722050689.6049,2024-07-26 20:24:49.604,93,false,0.0,4235.0, 4347.949, 4103.077, 4173.974, 4218.718
1722050689.6127,2024-07-26 20:24:49.612,94,false,0.0,4243.846, 4368.205, 4102.18, 4175.385, 4215.641
1722050689.6205,2024-07-26 20:24:49.620,95,false,0.0,4243.461, 4383.205, 4113.077, 4172.564, 4208.718
1722050689.6284,2024-07-26 20:24:49.628,96,false,0.0,4239.359, 4378.718, 4116.795, 4169.615, 4211.795
1722050689.6362,2024-07-26 20:24:49.636,97,false,0.0,4235.256, 4370.385, 4112.051, 4162.949, 4218.846
1722050689.644,2024-07-26 20:24:49.644,98,false,0.0,4226.539, 4365.256, 4109.231, 4161.795, 4213.846
1722050689.6518,2024-07-26 20:24:49.651,99,false,0.0,4227.308, 4368.461, 4105.513, 4172.308, 4207.564
1722050689.6596,2024-07-26 20:24:49.659,100,false,0.0,4240.385, 4376.41, 4098.718, 4174.103, 4213.59
1722050689.6674,2024-07-26 20:24:49.667,101,false,0.0,4250.513, 4380.513, 4100.256, 4175.128, 4223.077
1722050689.6752,2024-07-26 20:24:49.675,102,false,0.0,4250.0, 4380.128, 4106.795, 4184.359, 4221.539
1722050689.683,2024-07-26 20:24:49.683,103,false,0.0,4241.923, 4373.846, 4109.231, 4179.231, 4215.128
1722050689.6909,2024-07-26 20:24:49.690,104,false,0.0,4240.385, 4370.641, 4114.615, 4178.974, 4217.308
1722050689.6987,2024-07-26 20:24:49.698,105,false,0.0,4243.333, 4372.949, 4115.641, 4194.103, 4214.872
1722050689.7065,2024-07-26 20:24:49.706,106,false,0.0,4235.256, 4363.974, 4105.641, 4185.769, 4200.641
1722050689.7143,2024-07-26 20:24:49.714,107,false,0.0,4233.846, 4358.59, 4109.359, 4175.128, 4198.846
1722050689.7221,2024-07-26 20:24:49.722,108,false,0.0,4241.795, 4371.026, 4117.308, 4188.077, 4202.692
1722050689.7299,2024-07-26 20:24:49.729,109,false,0.0,4229.231, 4368.974, 4097.82, 4182.18, 4192.436
1722050689.7377,2024-07-26 20:24:49.737,110,false,0.0,4220.385, 4359.487, 4085.897, 4171.539, 4197.308
1722050689.7455,2024-07-26 20:24:49.745,111,false,0.0,4239.231, 4372.564, 4103.461, 4189.231, 4220.0
1722050689.7534,2024-07-26 20:24:49.753,112,false,0.0,4240.385, 4375.513, 4102.564, 4190.256, 4215.641
1722050689.7612,2024-07-26 20:24:49.761,113,false,0.0,4224.615, 4365.0, 4087.564, 4172.18, 4198.974
1722050689.769,2024-07-26 20:24:49.769,114,false,0.0,4230.897, 4379.231, 4098.461, 4174.744, 4205.897
1722050689.7768,2024-07-26 20:24:49.776,115,false,0.0,4233.205, 4384.231, 4106.667, 4173.59, 4212.051
1722050689.7846,2024-07-26 20:24:49.784,116,false,0.0,4224.231, 4360.0, 4095.385, 4166.154, 4209.487
1722050689.7924,2024-07-26 20:24:49.792,117,false,0.0,4236.667, 4358.077, 4098.205, 4182.051, 4221.795
1722050689.8002,2024-07-26 20:24:49.800,118,false,0.0,4250.0, 4369.872, 4106.539, 4194.487, 4233.205
1722050689.808,2024-07-26 20:24:49.808,119,false,0.0,4245.769, 4361.539, 4098.077, 4186.539, 4227.308
1722050689.8159,2024-07-26 20:24:49.815,120,false,0.0,4243.59, 4357.692, 4089.744, 4181.282, 4222.18
1722050689.8237,2024-07-26 20:24:49.823,121,false,0.0,4239.872, 4359.872, 4085.513, 4181.795, 4222.436
1722050689.8315,2024-07-26 20:24:49.831,122,false,0.0,4235.513, 4353.59, 4079.872, 4186.923, 4222.82
1722050689.8393,2024-07-26 20:24:49.839,123,false,0.0,4240.256, 4357.308, 4082.821, 4191.795, 4225.513
1722050689.8471,2024-07-26 20:24:49.847,124,false,0.0,4237.18, 4361.026, 4087.051, 4183.205, 4223.205
1722050689.8549,2024-07-26 20:24:49.854,125,false,0.0,4231.154, 4351.282, 4085.128, 4175.0, 4214.103
1722050689.8627,2024-07-26 20:24:49.862,126,false,0.0,4238.205, 4353.846, 4091.41, 4175.128, 4212.692
1722050689.8705,2024-07-26 20:24:49.870,127,false,0.0,4243.077, 4366.026, 4102.051, 4172.051, 4224.487
1722050689.8784,2024-07-26 20:24:49.878,0,false,0.0,4248.718, 4370.897, 4104.487, 4178.205, 4238.846
1722050689.8862,2024-07-26 20:24:49.886,1,false,0.0,4260.641, 4375.385, 4104.872, 4190.769, 4241.41
1722050689.894,2024-07-26 20:24:49.894,2,false,0.0,4258.077, 4372.051, 4104.231, 4187.18, 4233.846
1722050689.9018,2024-07-26 20:24:49.901,3,false,0.0,4253.077, 4361.026, 4099.744, 4181.795, 4231.923
1722050689.9096,2024-07-26 20:24:49.909,4,false,0.0,4258.077, 4357.82, 4095.769, 4180.641, 4231.154
1722050689.9174,2024-07-26 20:24:49.917,5,false,0.0,4251.923, 4354.231, 4093.205, 4176.667, 4226.282
1722050689.9252,2024-07-26 20:24:49.925,6,false,0.0,4251.41, 4357.18, 4097.692, 4194.103, 4236.923
1722050689.933,2024-07-26 20:24:49.933,7,false,0.0,4264.744, 4370.0, 4102.82, 4213.718, 4248.974
1722050689.9409,2024-07-26 20:24:49.940,8,false,0.0,4257.18, 4361.282, 4090.513, 4193.974, 4235.128
1722050689.9487,2024-07-26 20:24:49.948,9,false,0.0,4259.615, 4353.846, 4084.744, 4179.359, 4241.795
1722050689.9565,2024-07-26 20:24:49.956,10,false,0.0,4305.769, 4379.231, 4106.154, 4198.59, 4298.333
1722050689.9643,2024-07-26 20:24:49.964,11,false,0.0,4339.359, 4384.872, 4110.0, 4200.385, 4344.231
1722050689.9721,2024-07-26 20:24:49.972,12,false,0.0,4351.923, 4363.974, 4090.0, 4186.154, 4364.103
1722050689.9799,2024-07-26 20:24:49.979,13,false,0.0,4391.154, 4371.923, 4095.769, 4189.872, 4404.615
1722050689.9877,2024-07-26 20:24:49.987,14,false,0.0,4428.333, 4384.487, 4109.487, 4189.231, 4450.385
1722050689.9955,2024-07-26 20:24:49.995,15,false,0.0,4438.974, 4373.205, 4094.872, 4179.744, 4467.82
1722050690.0034,2024-07-26 20:24:50.003,16,false,0.0,4457.564, 4373.333, 4083.461, 4184.359, 4476.41
1722050690.0112,2024-07-26 20:24:50.011,17,false,0.0,4476.026, 4378.718, 4085.897, 4186.667, 4487.949
1722050690.019,2024-07-26 20:24:50.019,18,false,0.0,4477.436, 4372.18, 4081.923, 4179.872, 4498.718
1722050690.0268,2024-07-26 20:24:50.026,19,false,0.0,4486.41, 4375.128, 4083.333, 4184.744, 4515.641
1722050690.0346,2024-07-26 20:24:50.034,20,false,0.0,4492.949, 4377.949, 4090.128, 4193.461, 4517.82
1722050690.0424,2024-07-26 20:24:50.042,21,false,0.0,4471.795, 4369.103, 4086.41, 4188.974, 4486.795
1722050690.0502,2024-07-26 20:24:50.050,22,false,0.0,4447.18, 4374.359, 4087.051, 4179.615, 4457.436
1722050690.058,2024-07-26 20:24:50.058,23,false,0.0,4435.897, 4389.744, 4097.308, 4176.026, 4450.385
1722050690.0659,2024-07-26 20:24:50.065,24,false,0.0,4422.564, 4389.231, 4098.718, 4176.026, 4440.256
1722050690.0737,2024-07-26 20:24:50.073,25,false,0.0,4409.744, 4377.949, 4096.41, 4176.154, 4421.667
1722050690.0815,2024-07-26 20:24:50.081,26,false,0.0,4405.513, 4372.82, 4100.0, 4181.667, 4409.103
1722050690.0893,2024-07-26 20:24:50.089,27,false,0.0,4394.487, 4379.872, 4100.641, 4189.487, 4393.59
1722050690.0971,2024-07-26 20:24:50.097,28,false,0.0,4363.333, 4386.539, 4093.974, 4183.205, 4365.769
1722050690.1049,2024-07-26 20:24:50.104,29,false,0.0,4328.205, 4374.615, 4085.385, 4168.205, 4334.487
1722050690.1127,2024-07-26 20:24:50.112,30,false,0.0,4313.974, 4357.564, 4082.821, 4165.256, 4313.59
1722050690.1205,2024-07-26 20:24:50.120,31,false,0.0,4324.359, 4360.256, 4088.718, 4174.487, 4318.461
1722050690.1284,2024-07-26 20:24:50.128,32,false,0.0,4335.513, 4374.615, 4092.821, 4186.41, 4335.897
1722050690.1362,2024-07-26 20:24:50.136,33,false,0.0,4320.0, 4380.0, 4088.59, 4190.513, 4322.564
1722050690.144,2024-07-26 20:24:50.144,34,false,0.0,4285.513, 4371.667, 4085.513, 4180.513, 4285.641
1722050690.1518,2024-07-26 20:24:50.151,35,false,0.0,4267.692, 4357.18, 4090.128, 4179.231, 4272.692
1722050690.1596,2024-07-26 20:24:50.159,36,false,0.0,4271.795, 4351.667, 4098.59, 4195.769, 4275.128
1722050690.1674,2024-07-26 20:24:50.167,37,false,0.0,4273.077, 4359.615, 4104.103, 4198.718, 4266.795
1722050690.1752,2024-07-26 20:24:50.175,38,false,0.0,4270.769, 4369.744, 4104.487, 4188.461, 4268.077
1722050690.183,2024-07-26 20:24:50.183,39,false,0.0,4270.769, 4374.359, 4104.872, 4192.436, 4279.103
1722050690.1909,2024-07-26 20:24:50.190,40,false,0.0,4260.513, 4370.0, 4106.795, 4198.718, 4269.872
1722050690.1987,2024-07-26 20:24:50.198,41,false,0.0,4245.128, 4359.359, 4104.103, 4197.308, 4250.513
1722050690.2065,2024-07-26 20:24:50.206,42,false,0.0,4241.026, 4357.051, 4098.205, 4202.82, 4246.41
1722050690.2143,2024-07-26 20:24:50.214,43,false,0.0,4239.872, 4363.974, 4095.897, 4205.128, 4248.718
1722050690.2221,2024-07-26 20:24:50.222,44,false,0.0,4234.615, 4365.641, 4096.154, 4198.333, 4245.897
1722050690.2299,2024-07-26 20:24:50.229,45,false,0.0,4232.308, 4365.513, 4097.18, 4200.513, 4242.436
1722050690.2377,2024-07-26 20:24:50.237,46,false,0.0,4231.41, 4371.282, 4100.128, 4201.539, 4243.846
1722050690.2455,2024-07-26 20:24:50.245,47,false,0.0,4231.41, 4372.436, 4102.308, 4192.308, 4247.564
1722050690.2534,2024-07-26 20:24:50.253,48,false,0.0,4232.308, 4367.82, 4099.359, 4192.564, 4241.41
1722050690.2612,2024-07-26 20:24:50.261,49,false,0.0,4220.385, 4366.154, 4090.769, 4192.692, 4223.077
1722050690.269,2024-07-26 20:24:50.269,50,false,0.0,4203.718, 4366.282, 4086.026, 4179.359, 4212.692
1722050690.2768,2024-07-26 20:24:50.276,51,false,0.0,4211.539, 4372.949, 4098.461, 4180.513, 4218.718
1722050690.2846,2024-07-26 20:24:50.284,52,false,0.0,4227.692, 4384.744, 4113.205, 4189.231, 4221.41
1722050690.2924,2024-07-26 20:24:50.292,53,false,0.0,4216.923, 4379.359, 4108.077, 4176.41, 4213.205
1722050690.3002,2024-07-26 20:24:50.300,54,false,0.0,4203.333, 4361.667, 4101.667, 4170.897, 4212.18
1722050690.308,2024-07-26 20:24:50.308,55,false,0.0,4211.539, 4354.872, 4108.333, 4181.41, 4215.128
1722050690.3159,2024-07-26 20:24:50.315,56,false,0.0,4209.487, 4350.513, 4101.923, 4170.385, 4204.359
1722050690.3237,2024-07-26 20:24:50.323,57,false,0.0,4199.872, 4347.692, 4091.282, 4159.487, 4197.308
1722050690.3315,2024-07-26 20:24:50.331,58,false,0.0,4215.513, 4363.461, 4107.436, 4175.385, 4209.615
1722050690.3393,2024-07-26 20:24:50.339,59,false,0.0,4221.667, 4372.82, 4120.769, 4176.923, 4214.487
1722050690.3471,2024-07-26 20:24:50.347,60,false,0.0,4196.282, 4356.41, 4108.333, 4164.359, 4205.385
1722050690.3549,2024-07-26 20:24:50.354,61,false,0.0,4192.949, 4350.769, 4103.974, 4173.59, 4209.231
1722050690.3627,2024-07-26 20:24:50.362,62,false,0.0,4211.539, 4360.641, 4110.128, 4181.923, 4216.539
1722050690.3705,2024-07-26 20:24:50.370,63,false,0.0,4207.949, 4353.718, 4104.615, 4179.487, 4209.744
1722050690.3784,2024-07-26 20:24:50.378,64,false,0.0,4210.128, 4349.103, 4107.436, 4190.897, 4210.897
1722050690.3862,2024-07-26 20:24:50.386,65,false,0.0,4230.385, 4368.974, 4123.59, 4196.539, 4225.385
1722050690.394,2024-07-26 20:24:50.394,66,false,0.0,4219.487, 4376.154, 4121.154, 4184.231, 4223.718
1722050690.4018,2024-07-26 20:24:50.401,67,false,0.0,4193.59, 4357.82, 4104.615, 4184.103, 4208.846
1722050690.4096,2024-07-26 20:24:50.409,68,false,0.0,4202.564, 4353.846, 4106.282, 4195.0, 4211.667
1722050690.4174,2024-07-26 20:24:50.417,69,false,0.0,4222.18, 4368.846, 4123.205, 4199.103, 4230.897
1722050690.4252,2024-07-26 20:24:50.425,70,false,0.0,4223.461, 4374.487, 4131.667, 4202.949, 4237.308
1722050690.433,2024-07-26 20:24:50.433,71,false,0.0,4221.667, 4372.436, 4132.436, 4204.103, 4225.385
1722050690.4409,2024-07-26 20:24:50.440,72,false,0.0,4215.641, 4376.026, 4134.872, 4194.615, 4213.846
1722050690.4487,2024-07-26 20:24:50.448,73,false,0.0,4201.41, 4377.18, 4128.333, 4184.231, 4208.205
1722050690.4565,2024-07-26 20:24:50.456,74,false,0.0,4200.513, 4371.795, 4112.18, 4182.564, 4205.897
1722050690.4643,2024-07-26 20:24:50.464,75,false,0.0,4210.897, 4370.128, 4109.103, 4186.795, 4215.513
1722050690.4721,2024-07-26 20:24:50.472,76,false,0.0,4208.718, 4372.436, 4112.82, 4189.487, 4228.077
1722050690.4799,2024-07-26 20:24:50.479,77,false,0.0,4202.436, 4373.205, 4103.718, 4191.41, 4224.231
1722050690.4877,2024-07-26 20:24:50.487,78,false,0.0,4207.692, 4375.385, 4102.82, 4198.846, 4216.41
1722050690.4955,2024-07-26 20:24:50.495,79,false,0.0,4211.154, 4376.539, 4117.692, 4203.461, 4219.615
1722050690.5034,2024-07-26 20:24:50.503,80,false,0.0,4207.82, 4370.641, 4122.308, 4197.051, 4218.333
1722050690.5112,2024-07-26 20:24:50.511,81,false,0.0,4211.282, 4369.744, 4123.205, 4190.513, 4210.128
1722050690.519,2024-07-26 20:24:50.519,82,false,0.0,4211.539, 4380.385, 4136.026, 4187.82, 4211.154
1722050690.5268,2024-07-26 20:24:50.526,83,false,0.0,4199.872, 4382.692, 4139.231, 4182.949, 4216.923
1722050690.5346,2024-07-26 20:24:50.534,84,false,0.0,4199.872, 4371.026, 4129.359, 4181.282, 4216.667
1722050690.5424,2024-07-26 20:24:50.542,85,false,0.0,4212.564, 4365.256, 4126.667, 4188.718, 4214.487
1722050690.5502,2024-07-26 20:24:50.550,86,false,0.0,4210.385, 4365.0, 4123.461, 4196.795, 4210.128
1722050690.558,2024-07-26 20:24:50.558,87,false,0.0,4201.539, 4362.949, 4113.461, 4195.385, 4202.949
1722050690.5659,2024-07-26 20:24:50.565,88,false,0.0,4209.615, 4372.18, 4117.18, 4189.615, 4205.0
1722050690.5737,2024-07-26 20:24:50.573,89,false,0.0,4218.718, 4381.154, 4132.308, 4194.359, 4214.615
1722050690.5815,2024-07-26 20:24:50.581,90,false,0.0,4210.128, 4365.513, 4132.051, 4199.872, 4212.692
1722050690.5893,2024-07-26 20:24:50.589,91,false,0.0,4200.641, 4353.077, 4122.18, 4190.256, 4201.795
1722050690.5971,2024-07-26 20:24:50.597,92,false,0.0,4204.744, 4364.487, 4126.795, 4187.82, 4205.769
1722050690.6049,2024-07-26 20:24:50.604,93,false,0.0,4209.359, 4365.256, 4133.333, 4204.103, 4220.897
1722050690.6127,2024-07-26 20:24:50.612,94,false,0.0,4206.026, 4354.615, 4122.692, 4206.282, 4220.385
1722050690.6205,2024-07-26 20:24:50.620,95,false,0.0,4204.231, 4362.692, 4111.667, 4190.128, 4207.18
1722050690.6284,2024-07-26 20:24:50.628,96,false,0.0,4206.282, 4368.461, 4110.513, 4188.59, 4206.667
1722050690.6362,2024-07-26 20:24:50.636,97,false,0.0,4206.154, 4360.897, 4105.769, 4200.385, 4217.564
1722050690.644,2024-07-26 20:24:50.644,98,false,0.0,4206.667, 4367.436, 4102.051, 4200.256, 4220.128
1722050690.6518,2024-07-26 20:24:50.651,99,false,0.0,4209.615, 4371.282, 4113.718, 4191.667, 4219.487
1722050690.6596,2024-07-26 20:24:50.659,100,false,0.0,4215.641, 4360.128, 4131.539, 4195.513, 4232.949
1722050690.6674,2024-07-26 20:24:50.667,101,false,0.0,4223.205, 4368.333, 4138.718, 4206.41, 4242.436
1722050690.6752,2024-07-26 20:24:50.675,102,false,0.0,4218.333, 4380.769, 4132.18, 4199.359, 4226.026
1722050690.683,2024-07-26 20:24:50.683,103,false,0.0,4208.846, 4370.641, 4126.539, 4188.333, 4215.769
1722050690.6909,2024-07-26 20:24:50.690,104,false,0.0,4221.539, 4374.744, 4133.59, 4201.667, 4235.128
1722050690.6987,2024-07-26 20:24:50.698,105,false,0.0,4233.846, 4387.051, 4135.128, 4211.923, 4244.359
1722050690.7065,2024-07-26 20:24:50.706,106,false,0.0,4220.385, 4366.795, 4120.641, 4198.333, 4231.026
1722050690.7143,2024-07-26 20:24:50.714,107,false,0.0,4219.103, 4356.41, 4118.205, 4198.59, 4233.846
1722050690.7221,2024-07-26 20:24:50.722,108,false,0.0,4237.82, 4383.461, 4131.41, 4210.769, 4243.718
1722050690.7299,2024-07-26 20:24:50.729,109,false,0.0,4230.769, 4390.128, 4126.923, 4196.026, 4227.82
1722050690.7377,2024-07-26 20:24:50.737,110,false,0.0,4209.359, 4369.872, 4108.205, 4176.795, 4208.077
1722050690.7455,2024-07-26 20:24:50.745,111,false,0.0,4210.0, 4367.82, 4106.795, 4180.769, 4207.436
1722050690.7534,2024-07-26 20:24:50.753,112,false,0.0,4216.923, 4373.59, 4114.744, 4186.282, 4216.795
1722050690.7612,2024-07-26 20:24:50.761,113,false,0.0,4221.667, 4367.692, 4110.385, 4191.795, 4231.923
1722050690.769,2024-07-26 20:24:50.769,114,false,0.0,4230.897, 4364.487, 4105.769, 4203.59, 4240.897
1722050690.7768,2024-07-26 20:24:50.776,115,false,0.0,4223.205, 4360.385, 4107.564, 4199.231, 4227.949
1722050690.7846,2024-07-26 20:24:50.784,116,false,0.0,4204.615, 4351.282, 4101.282, 4187.564, 4210.385
1722050690.7924,2024-07-26 20:24:50.792,117,false,0.0,4212.692, 4355.769, 4098.974, 4192.051, 4209.744
1722050690.8002,2024-07-26 20:24:50.800,118,false,0.0,4230.256, 4364.744, 4114.744, 4195.128, 4219.487
1722050690.808,2024-07-26 20:24:50.808,119,false,0.0,4225.769, 4353.718, 4124.103, 4190.769, 4227.82
1722050690.8159,2024-07-26 20:24:50.815,120,false,0.0,4225.513, 4345.0, 4118.59, 4199.103, 4231.667
1722050690.8237,2024-07-26 20:24:50.823,121,false,0.0,4240.769, 4361.667, 4119.103, 4204.872, 4231.154
1722050690.8315,2024-07-26 20:24:50.831,122,false,0.0,4233.461, 4369.615, 4119.231, 4188.461, 4224.615
1722050690.8393,2024-07-26 20:24:50.839,123,false,0.0,4208.077, 4351.923, 4114.744, 4172.949, 4213.205
1722050690.8471,2024-07-26 20:24:50.847,124,false,0.0,4205.385, 4349.744, 4123.59, 4178.205, 4210.641
1722050690.8549,2024-07-26 20:24:50.854,125,false,0.0,4216.026, 4366.282, 4131.41, 4188.461, 4221.154
1722050690.8627,2024-07-26 20:24:50.862,126,false,0.0,4209.872, 4362.82, 4116.923, 4182.692, 4224.103
1722050690.8705,2024-07-26 20:24:50.870,127,false,0.0,4196.026, 4349.103, 4099.103, 4166.795, 4210.385
1722050690.8784,2024-07-26 20:24:50.878,0,false,0.0,4189.487, 4351.026, 4093.461, 4164.103, 4197.051
1722050690.8862,2024-07-26 20:24:50.886,1,false,0.0,4187.949, 4358.461, 4097.051, 4177.18, 4198.077
1722050690.894,2024-07-26 20:24:50.894,2,false,0.0,4189.872, 4361.154, 4105.769, 4185.769, 4210.128
1722050690.9018,2024-07-26 20:24:50.901,3,false,0.0,4194.487, 4358.077, 4106.923, 4184.872, 4220.769
1722050690.9096,2024-07-26 20:24:50.909,4,false,0.0,4202.82, 4357.051, 4105.513, 4185.256, 4224.231
1722050690.9174,2024-07-26 20:24:50.917,5,false,0.0,4211.026, 4372.564, 4115.513, 4184.359, 4225.256
1722050690.9252,2024-07-26 20:24:50.925,6,false,0.0,4203.461, 4378.974, 4115.385, 4176.923, 4222.051
1722050690.933,2024-07-26 20:24:50.933,7,false,0.0,4190.385, 4355.256, 4097.564, 4171.539, 4215.769
1722050690.9409,2024-07-26 20:24:50.940,8,false,0.0,4197.949, 4346.154, 4095.769, 4175.897, 4218.077
1722050690.9487,2024-07-26 20:24:50.948,9,false,0.0,4207.564, 4360.385, 4104.359, 4178.461, 4221.41
1722050690.9565,2024-07-26 20:24:50.956,10,false,0.0,4198.974, 4358.718, 4096.795, 4169.744, 4218.461
1722050690.9643,2024-07-26 20:24:50.964,11,false,0.0,4204.231, 4361.923, 4097.18, 4164.744, 4228.718
1722050690.9721,2024-07-26 20:24:50.972,12,false,0.0,4225.769, 4378.974, 4113.846, 4173.333, 4247.308
1722050690.9799,2024-07-26 20:24:50.979,13,false,0.0,4223.59, 4365.769, 4109.872, 4179.487, 4245.385
1722050690.9877,2024-07-26 20:24:50.987,14,false,0.0,4211.41, 4348.077, 4092.564, 4180.0, 4237.051
1722050690.9955,2024-07-26 20:24:50.995,15,false,0.0,4218.59, 4362.949, 4095.128, 4187.82, 4244.872
1722050691.0034,2024-07-26 20:24:51.003,16,false,0.0,4222.692, 4368.59, 4101.923, 4194.872, 4252.692
1722050691.0112,2024-07-26 20:24:51.011,17,false,0.0,4220.128, 4359.359, 4100.897, 4191.667, 4256.539
1722050691.019,2024-07-26 20:24:51.019,18,false,0.0,4225.256, 4362.949, 4105.513, 4187.051, 4264.103
1722050691.0268,2024-07-26 20:24:51.026,19,false,0.0,4213.846, 4351.923, 4104.872, 4183.59, 4259.615
1722050691.0346,2024-07-26 20:24:51.034,20,false,0.0,4192.051, 4335.128, 4097.18, 4181.923, 4250.513
1722050691.0424,2024-07-26 20:24:51.042,21,false,0.0,4193.974, 4350.769, 4099.359, 4184.487, 4258.59
1722050691.0502,2024-07-26 20:24:51.050,22,false,0.0,4196.539, 4356.795, 4090.513, 4180.256, 4263.59
1722050691.058,2024-07-26 20:24:51.058,23,false,0.0,4193.718, 4340.0, 4071.154, 4173.205, 4260.385
1722050691.0659,2024-07-26 20:24:51.065,24,false,0.0,4219.359, 4355.897, 4087.949, 4182.18, 4279.872
1722050691.0737,2024-07-26 20:24:51.073,25,false,0.0,4232.692, 4374.359, 4113.077, 4188.205, 4300.641
1722050691.0815,2024-07-26 20:24:51.081,26,false,0.0,4201.282, 4351.539, 4094.872, 4173.718, 4290.128
1722050691.0893,2024-07-26 20:24:51.089,27,false,0.0,4193.205, 4348.205, 4083.846, 4171.026, 4287.436
1722050691.0971,2024-07-26 20:24:51.097,28,false,0.0,4219.359, 4374.103, 4107.82, 4188.974, 4310.0
1722050691.1049,2024-07-26 20:24:51.104,29,false,0.0,4214.744, 4363.59, 4108.461, 4188.718, 4312.051
1722050691.1127,2024-07-26 20:24:51.112,30,false,0.0,4196.667, 4344.744, 4093.205, 4172.18, 4297.692
1722050691.1205,2024-07-26 20:24:51.120,31,false,0.0,4202.436, 4361.923, 4104.103, 4170.769, 4301.026
1722050691.1284,2024-07-26 20:24:51.128,32,false,0.0,4201.667, 4364.615, 4102.82, 4172.436, 4299.872
1722050691.1362,2024-07-26 20:24:51.136,33,false,0.0,4193.333, 4344.615, 4077.564, 4163.205, 4283.461
1722050691.144,2024-07-26 20:24:51.144,34,false,0.0,4205.769, 4351.026, 4080.641, 4166.154, 4286.41
1722050691.1518,2024-07-26 20:24:51.151,35,false,0.0,4216.795, 4360.641, 4099.744, 4182.308, 4302.692
1722050691.1596,2024-07-26 20:24:51.159,36,false,0.0,4211.667, 4349.359, 4097.692, 4185.513, 4301.795
1722050691.1674,2024-07-26 20:24:51.167,37,false,0.0,4214.872, 4356.026, 4098.461, 4178.59, 4294.487
1722050691.1752,2024-07-26 20:24:51.175,38,false,0.0,4220.641, 4370.513, 4109.359, 4176.923, 4290.256
1722050691.183,2024-07-26 20:24:51.183,39,false,0.0,4212.949, 4357.692, 4102.82, 4177.051, 4279.872
1722050691.1909,2024-07-26 20:24:51.190,40,false,0.0,4211.282, 4349.103, 4093.718, 4176.795, 4276.667
1722050691.1987,2024-07-26 20:24:51.198,41,false,0.0,4218.846, 4356.923, 4100.641, 4179.359, 4283.205
1722050691.2065,2024-07-26 20:24:51.206,42,false,0.0,4216.282, 4351.795, 4106.026, 4184.231, 4278.974
1722050691.2143,2024-07-26 20:24:51.214,43,false,0.0,4214.231, 4356.41, 4109.744, 4192.82, 4273.974
1722050691.2221,2024-07-26 20:24:51.222,44,false,0.0,4222.051, 4379.744, 4120.385, 4201.923, 4280.513
1722050691.2299,2024-07-26 20:24:51.229,45,false,0.0,4220.897, 4373.077, 4118.461, 4202.18, 4273.718
1722050691.2377,2024-07-26 20:24:51.237,46,false,0.0,4210.769, 4351.795, 4104.359, 4193.077, 4252.949
1722050691.2455,2024-07-26 20:24:51.245,47,false,0.0,4207.436, 4359.487, 4104.359, 4184.872, 4245.897
1722050691.2534,2024-07-26 20:24:51.253,48,false,0.0,4205.897, 4361.026, 4110.0, 4186.026, 4245.641
1722050691.2612,2024-07-26 20:24:51.261,49,false,0.0,4204.359, 4341.923, 4101.539, 4189.359, 4237.436
1722050691.269,2024-07-26 20:24:51.269,50,false,0.0,4209.359, 4345.769, 4099.359, 4184.359, 4238.077
1722050691.2768,2024-07-26 20:24:51.276,51,false,0.0,4211.795, 4357.564, 4115.641, 4182.82, 4249.872
1722050691.2846,2024-07-26 20:24:51.284,52,false,0.0,4207.436, 4347.692, 4119.744, 4190.256, 4247.18
1722050691.2924,2024-07-26 20:24:51.292,53,false,0.0,4206.282, 4347.18, 4107.436, 4188.461, 4230.0
1722050691.3002,2024-07-26 20:24:51.300,54,false,0.0,4209.615, 4361.923, 4110.513, 4183.077, 4228.205
1722050691.308,2024-07-26 20:24:51.308,55,false,0.0,4213.974, 4363.59, 4119.359, 4188.205, 4241.41
1722050691.3159,2024-07-26 20:24:51.315,56,false,0.0,4215.256, 4358.333, 4106.667, 4183.59, 4238.461
1722050691.3237,2024-07-26 20:24:51.323,57,false,0.0,4212.308, 4353.718, 4095.769, 4172.82, 4227.051
1722050691.3315,2024-07-26 20:24:51.331,58,false,0.0,4217.051, 4348.077, 4105.897, 4186.282, 4236.795
1722050691.3393,2024-07-26 20:24:51.339,59,false,0.0,4227.82, 4356.667, 4110.385, 4200.641, 4244.872
1722050691.3471,2024-07-26 20:24:51.347,60,false,0.0,4222.436, 4371.41, 4101.795, 4187.18, 4226.41
1722050691.3549,2024-07-26 20:24:51.354,61,false,0.0,4208.077, 4365.128, 4098.974, 4176.154, 4214.487
1722050691.3627,2024-07-26 20:24:51.362,62,false,0.0,4209.872, 4351.282, 4103.59, 4184.231, 4225.769
1722050691.3705,2024-07-26 20:24:51.370,63,false,0.0,4213.974, 4345.513, 4105.513, 4185.385, 4227.82
1722050691.3784,2024-07-26 20:24:51.378,64,false,0.0,4201.667, 4336.154, 4096.154, 4173.077, 4209.359
1722050691.3862,2024-07-26 20:24:51.386,65,false,0.0,4196.795, 4336.41, 4081.154, 4166.154, 4196.667
1722050691.394,2024-07-26 20:24:51.394,66,false,0.0,4212.436, 4353.846, 4081.539, 4172.18, 4206.026
1722050691.4018,2024-07-26 20:24:51.401,67,false,0.0,4219.872, 4354.231, 4090.513, 4177.949, 4220.0
1722050691.4096,2024-07-26 20:24:51.409,68,false,0.0,4211.667, 4342.564, 4092.308, 4173.205, 4219.744
1722050691.4174,2024-07-26 20:24:51.417,69,false,0.0,4211.41, 4352.692, 4102.949, 4174.744, 4220.128
1722050691.4252,2024-07-26 20:24:51.425,70,false,0.0,4214.487, 4356.667, 4113.333, 4188.077, 4225.897
1722050691.433,2024-07-26 20:24:51.433,71,false,0.0,4204.359, 4336.154, 4096.795, 4187.18, 4211.539
1722050691.4409,2024-07-26 20:24:51.440,72,false,0.0,4195.0, 4333.59, 4085.385, 4174.744, 4191.41
1722050691.4487,2024-07-26 20:24:51.448,73,false,0.0,4201.667, 4345.385, 4102.949, 4180.897, 4201.154
1722050691.4565,2024-07-26 20:24:51.456,74,false,0.0,4217.82, 4343.205, 4114.231, 4195.128, 4221.154
1722050691.4643,2024-07-26 20:24:51.464,75,false,0.0,4229.615, 4349.487, 4114.359, 4194.103, 4226.026
1722050691.4721,2024-07-26 20:24:51.472,76,false,0.0,4221.795, 4356.539, 4115.513, 4188.974, 4221.154
1722050691.4799,2024-07-26 20:24:51.479,77,false,0.0,4206.282, 4341.923, 4104.487, 4190.641, 4207.564
1722050691.4877,2024-07-26 20:24:51.487,78,false,0.0,4213.077, 4347.051, 4102.051, 4193.846, 4205.641
1722050691.4955,2024-07-26 20:24:51.495,79,false,0.0,4225.769, 4366.41, 4117.18, 4191.923, 4225.513
1722050691.5034,2024-07-26 20:24:51.503,80,false,0.0,4213.974, 4345.256, 4105.0, 4181.154, 4221.154
1722050691.5112,2024-07-26 20:24:51.511,81,false,0.0,4206.795, 4327.949, 4082.051, 4176.154, 4195.0
1722050691.519,2024-07-26 20:24:51.519,82,false,0.0,4224.487, 4359.359, 4097.436, 4188.974, 4203.974
1722050691.5268,2024-07-26 20:24:51.526,83,false,0.0,4227.949, 4375.128, 4110.641, 4195.769, 4222.308
1722050691.5346,2024-07-26 20:24:51.534,84,false,0.0,4208.846, 4355.385, 4091.923, 4184.744, 4207.308
1722050691.5424,2024-07-26 20:24:51.542,85,false,0.0,4200.256, 4352.18, 4085.0, 4178.718, 4195.513
1722050691.5502,2024-07-26 20:24:51.550,86,false,0.0,4201.026, 4358.333, 4093.077, 4179.615, 4200.128
1722050691.558,2024-07-26 20:24:51.558,87,false,0.0,4202.051, 4350.128, 4094.487, 4179.103, 4200.513
1722050691.5659,2024-07-26 20:24:51.565,88,false,0.0,4216.923, 4351.923, 4101.667, 4187.436, 4212.308
1722050691.5737,2024-07-26 20:24:51.573,89,false,0.0,4233.718, 4365.256, 4104.744, 4193.718, 4225.769
1722050691.5815,2024-07-26 20:24:51.581,90,false,0.0,4227.051, 4363.974, 4092.692, 4182.564, 4212.308
1722050691.5893,2024-07-26 20:24:51.589,91,false,0.0,4214.359, 4353.333, 4091.154, 4175.385, 4201.026
1722050691.5971,2024-07-26 20:24:51.597,92,false,0.0,4216.923, 4350.0, 4097.18, 4180.513, 4210.256
1722050691.6049,2024-07-26 20:24:51.604,93,false,0.0,4219.359, 4347.692, 4090.0, 4175.385, 4212.949
1722050691.6127,2024-07-26 20:24:51.612,94,false,0.0,4213.59, 4342.564, 4087.436, 4165.128, 4208.718
1722050691.6205,2024-07-26 20:24:51.620,95,false,0.0,4219.359, 4348.718, 4102.308, 4171.282, 4213.59
1722050691.6284,2024-07-26 20:24:51.628,96,false,0.0,4235.128, 4364.615, 4116.154, 4182.18, 4222.949
1722050691.6362,2024-07-26 20:24:51.636,97,false,0.0,4235.769, 4365.385, 4114.103, 4178.974, 4230.0
1722050691.644,2024-07-26 20:24:51.644,98,false,0.0,4225.128, 4351.923, 4102.564, 4172.18, 4226.667
1722050691.6518,2024-07-26 20:24:51.651,99,false,0.0,4228.461, 4351.795, 4102.436, 4177.18, 4216.795
1722050691.6596,2024-07-26 20:24:51.659,100,false,0.0,4239.103, 4360.385, 4113.59, 4183.974, 4216.154
1722050691.6674,2024-07-26 20:24:51.667,101,false,0.0,4233.461, 4350.641, 4113.718, 4176.539, 4212.949
1722050691.6752,2024-07-26 20:24:51.675,102,false,0.0,4215.256, 4333.461, 4106.795, 4165.256, 4198.077
1722050691.683,2024-07-26 20:24:51.683,103,false,0.0,4206.026, 4339.359, 4110.897, 4172.051, 4196.795
1722050691.6909,2024-07-26 20:24:51.690,104,false,0.0,4211.154, 4357.692, 4118.077, 4189.231, 4208.718
1722050691.6987,2024-07-26 20:24:51.698,105,false,0.0,4215.769, 4357.436, 4114.744, 4191.41, 4210.0
1722050691.7065,2024-07-26 20:24:51.706,106,false,0.0,4210.385, 4345.513, 4102.949, 4181.795, 4208.718
1722050691.7143,2024-07-26 20:24:51.714,107,false,0.0,4209.615, 4346.282, 4099.231, 4181.795, 4215.513
1722050691.7221,2024-07-26 20:24:51.722,108,false,0.0,4222.436, 4352.436, 4114.359, 4189.487, 4222.949
1722050691.7299,2024-07-26 20:24:51.729,109,false,0.0,4232.564, 4353.59, 4125.385, 4193.59, 4228.077
1722050691.7377,2024-07-26 20:24:51.737,110,false,0.0,4233.59, 4366.154, 4119.231, 4194.487, 4228.718
1722050691.7455,2024-07-26 20:24:51.745,111,false,0.0,4234.103, 4382.308, 4118.077, 4191.539, 4226.923
1722050691.7534,2024-07-26 20:24:51.753,112,false,0.0,4231.795, 4372.051, 4113.718, 4185.769, 4229.615
1722050691.7612,2024-07-26 20:24:51.761,113,false,0.0,4228.846, 4351.41, 4095.641, 4185.897, 4232.436
1722050691.769,2024-07-26 20:24:51.769,114,false,0.0,4235.0, 4352.82, 4100.513, 4191.795, 4239.359
1722050691.7768,2024-07-26 20:24:51.776,115,false,0.0,4240.0, 4363.718, 4121.026, 4196.026, 4251.282
1722050691.7846,2024-07-26 20:24:51.784,116,false,0.0,4236.795, 4366.282, 4112.436, 4197.436, 4249.615
1722050691.7924,2024-07-26 20:24:51.792,117,false,0.0,4237.18, 4365.641, 4098.077, 4194.103, 4241.795
1722050691.8002,2024-07-26 20:24:51.800,118,false,0.0,4232.692, 4359.487, 4098.59, 4184.744, 4245.0
1722050691.808,2024-07-26 20:24:51.808,119,false,0.0,4216.667, 4353.461, 4086.923, 4172.564, 4240.128
1722050691.8159,2024-07-26 20:24:51.815,120,false,0.0,4218.077, 4363.461, 4086.923, 4166.154, 4235.385
1722050691.8237,2024-07-26 20:24:51.823,121,false,0.0,4238.333, 4372.692, 4114.872, 4172.436, 4252.564
1722050691.8315,2024-07-26 20:24:51.831,122,false,0.0,4235.128, 4356.923, 4111.795, 4178.461, 4249.615
1722050691.8393,2024-07-26 20:24:51.839,123,false,0.0,4210.0, 4337.82, 4081.923, 4171.154, 4217.18
1722050691.8471,2024-07-26 20:24:51.847,124,false,0.0,4208.077, 4344.487, 4091.539, 4173.077, 4217.564
1722050691.8549,2024-07-26 20:24:51.854,125,false,0.0,4228.846, 4362.18, 4115.128, 4192.436, 4242.051
1722050691.8627,2024-07-26 20:24:51.862,126,false,0.0,4237.436, 4364.872, 4103.461, 4192.564, 4238.077
1722050691.8705,2024-07-26 20:24:51.870,127,false,0.0,4233.718, 4358.205, 4092.308, 4170.513, 4228.333
1722050691.8784,2024-07-26 20:24:51.878,0,false,0.0,4232.308, 4356.539, 4103.077, 4163.333, 4234.872
1722050691.8862,2024-07-26 20:24:51.886,1,false,0.0,4227.308, 4355.385, 4106.41, 4169.359, 4232.82
1722050691.894,2024-07-26 20:24:51.894,2,false,0.0,4224.103, 4358.077, 4107.051, 4170.256, 4228.59
1722050691.9018,2024-07-26 20:24:51.901,3,false,0.0,4234.359, 4369.487, 4116.923, 4171.923, 4241.282
1722050691.9096,2024-07-26 20:24:51.909,4,false,0.0,4237.308, 4366.539, 4115.256, 4171.539, 4255.769
1722050691.9174,2024-07-26 20:24:51.917,5,false,0.0,4221.41, 4346.026, 4101.795, 4165.897, 4261.795
1722050691.9252,2024-07-26 20:24:51.925,6,false,0.0,4212.564, 4341.41, 4096.282, 4169.231, 4265.128
1722050691.933,2024-07-26 20:24:51.933,7,false,0.0,4211.41, 4348.718, 4093.205, 4170.513, 4264.615
1722050691.9409,2024-07-26 20:24:51.940,8,false,0.0,4198.205, 4342.82, 4086.539, 4154.487, 4267.436
1722050691.9487,2024-07-26 20:24:51.948,9,false,0.0,4195.897, 4337.051, 4088.077, 4149.744, 4290.769
1722050691.9565,2024-07-26 20:24:51.956,10,false,0.0,4218.461, 4338.333, 4098.077, 4169.359, 4326.154
1722050691.9643,2024-07-26 20:24:51.964,11,false,0.0,4228.718, 4337.564, 4104.359, 4177.82, 4347.949
1722050691.9721,2024-07-26 20:24:51.972,12,false,0.0,4217.692, 4345.769, 4105.128, 4169.359, 4358.205
1722050691.9799,2024-07-26 20:24:51.979,13,false,0.0,4218.077, 4357.564, 4106.282, 4173.974, 4375.385
1722050691.9877,2024-07-26 20:24:51.987,14,false,0.0,4230.769, 4354.359, 4107.051, 4183.59, 4389.744
1722050691.9955,2024-07-26 20:24:51.995,15,false,0.0,4234.231, 4351.026, 4105.385, 4177.82, 4391.026
1722050692.0034,2024-07-26 20:24:52.003,16,false,0.0,4233.333, 4357.564, 4110.897, 4177.18, 4402.949
1722050692.0112,2024-07-26 20:24:52.011,17,false,0.0,4237.564, 4357.82, 4124.615, 4190.769, 4427.949
1722050692.019,2024-07-26 20:24:52.019,18,false,0.0,4241.154, 4351.026, 4123.974, 4190.385, 4431.026
1722050692.0268,2024-07-26 20:24:52.026,19,false,0.0,4240.0, 4347.18, 4106.667, 4173.333, 4417.18
1722050692.0346,2024-07-26 20:24:52.034,20,false,0.0,4233.846, 4344.615, 4096.923, 4165.513, 4419.615
1722050692.0424,2024-07-26 20:24:52.042,21,false,0.0,4225.385, 4340.641, 4095.641, 4168.59, 4422.564
1722050692.0502,2024-07-26 20:24:52.050,22,false,0.0,4226.41, 4339.615, 4095.128, 4172.051, 4408.461
1722050692.058,2024-07-26 20:24:52.058,23,false,0.0,4240.513, 4348.205, 4106.282, 4179.744, 4411.282
1722050692.0659,2024-07-26 20:24:52.065,24,false,0.0,4244.872, 4352.82, 4113.59, 4184.744, 4428.077
1722050692.0737,2024-07-26 20:24:52.073,25,false,0.0,4227.436, 4338.846, 4093.846, 4172.051, 4409.744
1722050692.0815,2024-07-26 20:24:52.081,26,false,0.0,4217.692, 4334.487, 4082.179, 4158.205, 4380.641
1722050692.0893,2024-07-26 20:24:52.089,27,false,0.0,4232.564, 4355.385, 4107.308, 4165.256, 4395.256
1722050692.0971,2024-07-26 20:24:52.097,28,false,0.0,4240.641, 4359.615, 4127.051, 4175.513, 4416.154
1722050692.1049,2024-07-26 20:24:52.104,29,false,0.0,4226.539, 4339.615, 4116.795, 4168.59, 4396.923
1722050692.1127,2024-07-26 20:24:52.112,30,false,0.0,4218.077, 4337.564, 4111.539, 4160.513, 4375.897
1722050692.1205,2024-07-26 20:24:52.120,31,false,0.0,4226.026, 4352.051, 4123.077, 4170.385, 4382.692
1722050692.1284,2024-07-26 20:24:52.128,32,false,0.0,4233.974, 4355.128, 4128.718, 4190.769, 4390.256
1722050692.1362,2024-07-26 20:24:52.136,33,false,0.0,4237.051, 4352.051, 4128.077, 4200.769, 4387.692
1722050692.144,2024-07-26 20:24:52.144,34,false,0.0,4237.436, 4352.308, 4126.667, 4189.103, 4383.974
1722050692.1518,2024-07-26 20:24:52.151,35,false,0.0,4232.051, 4350.128, 4116.41, 4173.205, 4374.487
1722050692.1596,2024-07-26 20:24:52.159,36,false,0.0,4225.769, 4347.051, 4107.436, 4173.718, 4361.923
1722050692.1674,2024-07-26 20:24:52.167,37,false,0.0,4226.154, 4349.744, 4115.256, 4177.308, 4359.744
1722050692.1752,2024-07-26 20:24:52.175,38,false,0.0,4231.282, 4353.333, 4124.231, 4171.667, 4366.795
1722050692.183,2024-07-26 20:24:52.183,39,false,0.0,4237.051, 4349.359, 4118.333, 4173.974, 4369.487
1722050692.1909,2024-07-26 20:24:52.190,40,false,0.0,4239.487, 4347.308, 4110.641, 4180.641, 4360.0
1722050692.1987,2024-07-26 20:24:52.198,41,false,0.0,4235.385, 4357.436, 4111.923, 4173.718, 4345.641
1722050692.2065,2024-07-26 20:24:52.206,42,false,0.0,4229.231, 4362.564, 4111.026, 4167.692, 4337.308
1722050692.2143,2024-07-26 20:24:52.214,43,false,0.0,4227.564, 4353.205, 4100.641, 4169.615, 4328.461
1722050692.2221,2024-07-26 20:24:52.222,44,false,0.0,4228.461, 4348.077, 4093.846, 4163.461, 4316.282
1722050692.2299,2024-07-26 20:24:52.229,45,false,0.0,4231.41, 4349.744, 4100.385, 4162.692, 4319.744
1722050692.2377,2024-07-26 20:24:52.237,46,false,0.0,4235.897, 4345.128, 4103.077, 4174.615, 4328.205
1722050692.2455,2024-07-26 20:24:52.245,47,false,0.0,4235.128, 4340.256, 4090.641, 4170.897, 4310.128
1722050692.2534,2024-07-26 20:24:52.253,48,false,0.0,4234.359, 4340.897, 4088.205, 4163.59, 4289.103
1722050692.2612,2024-07-26 20:24:52.261,49,false,0.0,4241.154, 4341.539, 4105.256, 4178.077, 4294.231
1722050692.269,2024-07-26 20:24:52.269,50,false,0.0,4239.615, 4340.385, 4108.461, 4176.282, 4288.461
1722050692.2768,2024-07-26 20:24:52.276,51,false,0.0,4224.231, 4340.128, 4093.077, 4151.41, 4262.436
1722050692.2846,2024-07-26 20:24:52.284,52,false,0.0,4219.744, 4343.846, 4090.256, 4155.256, 4259.615
1722050692.2924,2024-07-26 20:24:52.292,53,false,0.0,4227.436, 4344.872, 4093.205, 4172.692, 4267.18
1722050692.3002,2024-07-26 20:24:52.300,54,false,0.0,4227.82, 4336.41, 4087.308, 4168.461, 4255.897
1722050692.308,2024-07-26 20:24:52.308,55,false,0.0,4231.154, 4337.308, 4091.795, 4176.154, 4252.436
1722050692.3159,2024-07-26 20:24:52.315,56,false,0.0,4242.18, 4354.872, 4102.564, 4193.846, 4258.59
1722050692.3237,2024-07-26 20:24:52.323,57,false,0.0,4242.436, 4367.18, 4102.18, 4184.872, 4256.795
1722050692.3315,2024-07-26 20:24:52.331,58,false,0.0,4240.769, 4373.461, 4107.949, 4182.051, 4265.256
1722050692.3393,2024-07-26 20:24:52.339,59,false,0.0,4246.282, 4372.692, 4112.82, 4197.436, 4270.385
1722050692.3471,2024-07-26 20:24:52.347,60,false,0.0,4239.231, 4350.641, 4093.461, 4188.205, 4249.872
1722050692.3549,2024-07-26 20:24:52.354,61,false,0.0,4229.359, 4338.077, 4080.897, 4178.846, 4245.385
1722050692.3627,2024-07-26 20:24:52.362,62,false,0.0,4237.82, 4357.82, 4092.564, 4200.897, 4260.897
1722050692.3705,2024-07-26 20:24:52.370,63,false,0.0,4241.795, 4368.718, 4097.308, 4208.205, 4248.077
1722050692.3784,2024-07-26 20:24:52.378,64,false,0.0,4233.846, 4361.539, 4099.615, 4193.461, 4230.641
1722050692.3862,2024-07-26 20:24:52.386,65,false,0.0,4236.795, 4363.077, 4113.974, 4194.103, 4240.513
1722050692.394,2024-07-26 20:24:52.394,66,false,0.0,4238.59, 4357.436, 4113.59, 4192.436, 4239.872
1722050692.4018,2024-07-26 20:24:52.401,67,false,0.0,4228.974, 4342.051, 4102.692, 4182.308, 4226.41
1722050692.4096,2024-07-26 20:24:52.409,68,false,0.0,4233.077, 4349.744, 4104.744, 4197.692, 4232.051
1722050692.4174,2024-07-26 20:24:52.417,69,false,0.0,4245.256, 4366.539, 4099.359, 4214.231, 4232.18
1722050692.4252,2024-07-26 20:24:52.425,70,false,0.0,4239.487, 4364.231, 4083.333, 4193.846, 4208.846
1722050692.433,2024-07-26 20:24:52.433,71,false,0.0,4231.539, 4360.897, 4086.795, 4172.051, 4197.564
1722050692.4409,2024-07-26 20:24:52.440,72,false,0.0,4235.897, 4367.308, 4101.923, 4175.385, 4203.205
1722050692.4487,2024-07-26 20:24:52.448,73,false,0.0,4231.154, 4363.077, 4104.231, 4171.154, 4195.641
1722050692.4565,2024-07-26 20:24:52.456,74,false,0.0,4218.846, 4348.718, 4101.026, 4161.539, 4184.359
1722050692.4643,2024-07-26 20:24:52.464,75,false,0.0,4227.949, 4347.564, 4103.718, 4181.026, 4194.872
1722050692.4721,2024-07-26 20:24:52.472,76,false,0.0,4245.513, 4358.461, 4102.436, 4204.103, 4207.436
1722050692.4799,2024-07-26 20:24:52.479,77,false,0.0,4240.769, 4359.231, 4089.872, 4195.385, 4200.897
1722050692.4877,2024-07-26 20:24:52.487,78,false,0.0,4240.256, 4355.513, 4084.359, 4189.615, 4205.897
1722050692.4955,2024-07-26 20:24:52.495,79,false,0.0,4272.436, 4364.103, 4101.923, 4206.154, 4243.846
1722050692.5034,2024-07-26 20:24:52.503,80,false,0.0,4307.436, 4369.487, 4120.256, 4207.692, 4287.436
1722050692.5112,2024-07-26 20:24:52.511,81,false,0.0,4332.436, 4367.82, 4121.282, 4196.667, 4322.692
1722050692.519,2024-07-26 20:24:52.519,82,false,0.0,4370.897, 4380.128, 4120.897, 4199.615, 4358.846
1722050692.5268,2024-07-26 20:24:52.526,83,false,0.0,4408.846, 4389.359, 4121.539, 4196.282, 4392.051
1722050692.5346,2024-07-26 20:24:52.534,84,false,0.0,4433.077, 4375.256, 4114.615, 4182.564, 4424.359
1722050692.5424,2024-07-26 20:24:52.542,85,false,0.0,4461.539, 4370.641, 4108.333, 4183.205, 4459.487
1722050692.5502,2024-07-26 20:24:52.550,86,false,0.0,4484.744, 4383.974, 4102.051, 4187.436, 4483.077
1722050692.558,2024-07-26 20:24:52.558,87,false,0.0,4501.795, 4380.385, 4097.051, 4189.103, 4501.795
1722050692.5659,2024-07-26 20:24:52.565,88,false,0.0,4537.18, 4370.641, 4110.769, 4204.359, 4529.103
1722050692.5737,2024-07-26 20:24:52.573,89,false,0.0,4558.59, 4381.154, 4129.359, 4215.385, 4541.154
1722050692.5815,2024-07-26 20:24:52.581,90,false,0.0,4538.077, 4391.41, 4129.615, 4209.744, 4529.744
1722050692.5893,2024-07-26 20:24:52.589,91,false,0.0,4522.82, 4392.82, 4128.461, 4210.256, 4518.718
1722050692.5971,2024-07-26 20:24:52.597,92,false,0.0,4520.641, 4397.308, 4132.564, 4211.282, 4503.077
1722050692.6049,2024-07-26 20:24:52.604,93,false,0.0,4497.18, 4394.103, 4126.154, 4198.205, 4474.615
1722050692.6127,2024-07-26 20:24:52.612,94,false,0.0,4476.282, 4389.359, 4124.103, 4191.539, 4454.103
1722050692.6205,2024-07-26 20:24:52.620,95,false,0.0,4470.0, 4395.128, 4132.692, 4194.615, 4439.487
1722050692.6284,2024-07-26 20:24:52.628,96,false,0.0,4440.385, 4381.41, 4121.154, 4186.282, 4409.359
1722050692.6362,2024-07-26 20:24:52.636,97,false,0.0,4403.077, 4352.82, 4097.051, 4177.82, 4373.205
1722050692.644,2024-07-26 20:24:52.644,98,false,0.0,4392.564, 4356.539, 4099.359, 4185.513, 4349.359
1722050692.6518,2024-07-26 20:24:52.651,99,false,0.0,4382.18, 4372.82, 4115.256, 4190.897, 4333.461
1722050692.6596,2024-07-26 20:24:52.659,100,false,0.0,4362.18, 4368.846, 4121.026, 4186.154, 4324.744
1722050692.6674,2024-07-26 20:24:52.667,101,false,0.0,4358.461, 4370.385, 4128.077, 4186.026, 4324.231
1722050692.6752,2024-07-26 20:24:52.675,102,false,0.0,4349.359, 4372.949, 4125.128, 4182.692, 4308.846
1722050692.683,2024-07-26 20:24:52.683,103,false,0.0,4317.308, 4356.154, 4101.154, 4173.205, 4275.128
1722050692.6909,2024-07-26 20:24:52.690,104,false,0.0,4299.359, 4350.897, 4092.179, 4180.0, 4257.949
1722050692.6987,2024-07-26 20:24:52.698,105,false,0.0,4290.513, 4353.846, 4098.846, 4187.308, 4249.872
1722050692.7065,2024-07-26 20:24:52.706,106,false,0.0,4259.872, 4336.282, 4090.385, 4172.051, 4219.231
1722050692.7143,2024-07-26 20:24:52.714,107,false,0.0,4244.615, 4332.692, 4092.949, 4170.897, 4199.103
1722050692.7221,2024-07-26 20:24:52.722,108,false,0.0,4257.436, 4350.513, 4113.461, 4189.487, 4207.82
1722050692.7299,2024-07-26 20:24:52.729,109,false,0.0,4244.231, 4348.718, 4106.41, 4178.974, 4196.667
1722050692.7377,2024-07-26 20:24:52.737,110,false,0.0,4219.872, 4347.82, 4094.231, 4156.41, 4171.41
1722050692.7455,2024-07-26 20:24:52.745,111,false,0.0,4225.641, 4366.667, 4112.18, 4160.769, 4170.769
1722050692.7534,2024-07-26 20:24:52.753,112,false,0.0,4222.18, 4364.231, 4114.744, 4165.641, 4166.026
1722050692.7612,2024-07-26 20:24:52.761,113,false,0.0,4198.461, 4347.308, 4096.41, 4164.744, 4146.41
1722050692.769,2024-07-26 20:24:52.769,114,false,0.0,4199.359, 4351.923, 4102.436, 4180.769, 4149.359
1722050692.7768,2024-07-26 20:24:52.776,115,false,0.0,4210.769, 4359.615, 4110.897, 4193.718, 4161.795
1722050692.7846,2024-07-26 20:24:52.784,116,false,0.0,4206.026, 4355.641, 4097.18, 4191.667, 4156.41
1722050692.7924,2024-07-26 20:24:52.792,117,false,0.0,4200.256, 4351.539, 4093.59, 4188.59, 4146.795
1722050692.8002,2024-07-26 20:24:52.800,118,false,0.0,4192.308, 4346.282, 4100.513, 4180.769, 4140.641
1722050692.808,2024-07-26 20:24:52.808,119,false,0.0,4182.308, 4348.461, 4098.077, 4173.077, 4140.256
1722050692.8159,2024-07-26 20:24:52.815,120,false,0.0,4184.487, 4359.231, 4102.692, 4174.103, 4152.051
1722050692.8237,2024-07-26 20:24:52.823,121,false,0.0,4184.615, 4356.667, 4112.18, 4172.692, 4166.539
1722050692.8315,2024-07-26 20:24:52.831,122,false,0.0,4177.18, 4349.359, 4107.82, 4172.82, 4178.461
1722050692.8393,2024-07-26 20:24:52.839,123,false,0.0,4179.872, 4352.436, 4104.872, 4178.59, 4189.103
1722050692.8471,2024-07-26 20:24:52.847,124,false,0.0,4186.795, 4352.692, 4114.231, 4179.487, 4199.231
1722050692.8549,2024-07-26 20:24:52.854,125,false,0.0,4194.359, 4358.205, 4120.128, 4184.359, 4216.539
1722050692.8627,2024-07-26 20:24:52.862,126,false,0.0,4203.461, 4374.615, 4118.205, 4189.103, 4231.667
1722050692.8705,2024-07-26 20:24:52.870,127,false,0.0,4197.308, 4369.487, 4115.0, 4180.769, 4233.461
1722050692.8784,2024-07-26 20:24:52.878,0,false,0.0,4189.231, 4349.103, 4113.974, 4184.744, 4241.667
1722050692.8862,2024-07-26 20:24:52.886,1,false,0.0,4201.026, 4349.872, 4116.923, 4197.18, 4255.513
1722050692.894,2024-07-26 20:24:52.894,2,false,0.0,4201.41, 4356.795, 4115.128, 4182.564, 4251.154
1722050692.9018,2024-07-26 20:24:52.901,3,false,0.0,4180.641, 4354.615, 4103.333, 4167.949, 4241.795
1722050692.9096,2024-07-26 20:24:52.909,4,false,0.0,4175.641, 4361.154, 4098.846, 4178.333, 4244.744
1722050692.9174,2024-07-26 20:24:52.917,5,false,0.0,4178.59, 4363.461, 4104.615, 4177.949, 4247.949
1722050692.9252,2024-07-26 20:24:52.925,6,false,0.0,4166.282, 4347.18, 4101.923, 4166.795, 4249.103
1722050692.933,2024-07-26 20:24:52.933,7,false,0.0,4165.128, 4342.18, 4096.41, 4170.385, 4254.103
1722050692.9409,2024-07-26 20:24:52.940,8,false,0.0,4181.282, 4349.744, 4102.564, 4175.769, 4261.795
1722050692.9487,2024-07-26 20:24:52.948,9,false,0.0,4184.359, 4345.0, 4108.077, 4180.897, 4268.461
1722050692.9565,2024-07-26 20:24:52.956,10,false,0.0,4181.795, 4351.667, 4108.205, 4190.769, 4269.103
1722050692.9643,2024-07-26 20:24:52.964,11,false,0.0,4192.308, 4379.103, 4116.539, 4190.256, 4271.923
1722050692.9721,2024-07-26 20:24:52.972,12,false,0.0,4192.949, 4375.641, 4117.18, 4185.385, 4276.539
1722050692.9799,2024-07-26 20:24:52.979,13,false,0.0,4174.615, 4345.128, 4093.846, 4183.59, 4259.744
1722050692.9877,2024-07-26 20:24:52.987,14,false,0.0,4165.769, 4344.103, 4079.872, 4173.205, 4234.872
1722050692.9955,2024-07-26 20:24:52.995,15,false,0.0,4169.744, 4355.385, 4093.077, 4167.82, 4230.128
1722050693.0034,2024-07-26 20:24:53.003,16,false,0.0,4168.333, 4350.256, 4102.436, 4175.385, 4228.974
1722050693.0112,2024-07-26 20:24:53.011,17,false,0.0,4172.308, 4364.359, 4103.718, 4178.718, 4233.718
1722050693.019,2024-07-26 20:24:53.019,18,false,0.0,4188.718, 4387.051, 4111.923, 4180.641, 4257.436
1722050693.0268,2024-07-26 20:24:53.026,19,false,0.0,4195.513, 4371.923, 4105.385, 4179.744, 4256.026
1722050693.0346,2024-07-26 20:24:53.034,20,false,0.0,4190.897, 4354.872, 4088.461, 4166.026, 4226.41
1722050693.0424,2024-07-26 20:24:53.042,21,false,0.0,4194.615, 4369.615, 4097.18, 4161.923, 4228.974
1722050693.0502,2024-07-26 20:24:53.050,22,false,0.0,4199.744, 4375.641, 4110.769, 4172.18, 4245.769
1722050693.058,2024-07-26 20:24:53.058,23,false,0.0,4196.154, 4364.359, 4096.923, 4171.282, 4231.923
1722050693.0659,2024-07-26 20:24:53.065,24,false,0.0,4193.205, 4360.256, 4080.641, 4168.333, 4218.974
1722050693.0737,2024-07-26 20:24:53.073,25,false,0.0,4188.077, 4351.667, 4076.154, 4172.308, 4217.564
1722050693.0815,2024-07-26 20:24:53.081,26,false,0.0,4179.487, 4339.487, 4073.205, 4167.308, 4201.667
1722050693.0893,2024-07-26 20:24:53.089,27,false,0.0,4186.667, 4346.282, 4082.692, 4168.077, 4197.051
1722050693.0971,2024-07-26 20:24:53.097,28,false,0.0,4202.051, 4360.128, 4095.641, 4181.667, 4213.846
1722050693.1049,2024-07-26 20:24:53.104,29,false,0.0,4195.897, 4357.18, 4085.256, 4179.359, 4205.0
1722050693.1127,2024-07-26 20:24:53.112,30,false,0.0,4177.564, 4341.795, 4068.974, 4166.539, 4170.897
1722050693.1205,2024-07-26 20:24:53.120,31,false,0.0,4172.436, 4331.41, 4071.41, 4166.282, 4157.82
1722050693.1284,2024-07-26 20:24:53.128,32,false,0.0,4179.872, 4338.333, 4082.821, 4168.333, 4167.436
1722050693.1362,2024-07-26 20:24:53.136,33,false,0.0,4198.205, 4357.692, 4096.923, 4172.436, 4183.205
1722050693.144,2024-07-26 20:24:53.144,34,false,0.0,4218.718, 4367.308, 4109.487, 4187.82, 4204.487
1722050693.1518,2024-07-26 20:24:53.151,35,false,0.0,4215.769, 4354.487, 4101.026, 4192.564, 4208.846
1722050693.1596,2024-07-26 20:24:53.159,36,false,0.0,4197.18, 4337.051, 4079.231, 4175.641, 4185.128
1722050693.1674,2024-07-26 20:24:53.167,37,false,0.0,4196.026, 4338.461, 4080.0, 4168.333, 4172.82
1722050693.1752,2024-07-26 20:24:53.175,38,false,0.0,4205.385, 4351.154, 4102.051, 4183.077, 4182.949
1722050693.183,2024-07-26 20:24:53.183,39,false,0.0,4200.128, 4354.103, 4108.333, 4186.795, 4178.718
1722050693.1909,2024-07-26 20:24:53.190,40,false,0.0,4190.513, 4347.308, 4095.128, 4170.641, 4165.641
1722050693.1987,2024-07-26 20:24:53.198,41,false,0.0,4196.026, 4341.923, 4094.359, 4171.41, 4172.051
1722050693.2065,2024-07-26 20:24:53.206,42,false,0.0,4208.974, 4343.59, 4101.667, 4192.18, 4179.359
1722050693.2143,2024-07-26 20:24:53.214,43,false,0.0,4210.641, 4345.897, 4089.103, 4196.667, 4172.692
1722050693.2221,2024-07-26 20:24:53.222,44,false,0.0,4199.359, 4337.564, 4072.051, 4185.769, 4168.59
1722050693.2299,2024-07-26 20:24:53.229,45,false,0.0,4191.154, 4330.897, 4077.692, 4180.641, 4165.769
1722050693.2377,2024-07-26 20:24:53.237,46,false,0.0,4196.026, 4343.333, 4092.692, 4183.077, 4163.974
1722050693.2455,2024-07-26 20:24:53.245,47,false,0.0,4208.461, 4356.667, 4099.615, 4195.385, 4178.974
1722050693.2534,2024-07-26 20:24:53.253,48,false,0.0,4211.923, 4353.205, 4096.923, 4202.18, 4190.897
1722050693.2612,2024-07-26 20:24:53.261,49,false,0.0,4194.359, 4341.282, 4079.872, 4179.872, 4172.82
1722050693.269,2024-07-26 20:24:53.269,50,false,0.0,4174.744, 4325.641, 4063.077, 4158.205, 4151.282
1722050693.2768,2024-07-26 20:24:53.276,51,false,0.0,4183.077, 4322.82, 4073.718, 4167.564, 4160.897
1722050693.2846,2024-07-26 20:24:53.284,52,false,0.0,4210.769, 4345.385, 4098.077, 4183.461, 4191.282
1722050693.2924,2024-07-26 20:24:53.292,53,false,0.0,4229.487, 4358.846, 4107.564, 4193.205, 4213.077
1722050693.3002,2024-07-26 20:24:53.300,54,false,0.0,4233.205, 4351.026, 4107.308, 4202.692, 4218.974
1722050693.308,2024-07-26 20:24:53.308,55,false,0.0,4229.231, 4353.205, 4107.436, 4200.128, 4225.513
1722050693.3159,2024-07-26 20:24:53.315,56,false,0.0,4229.359, 4356.154, 4106.154, 4194.615, 4239.872
1722050693.3237,2024-07-26 20:24:53.323,57,false,0.0,4237.18, 4347.692, 4108.59, 4199.103, 4245.256
1722050693.3315,2024-07-26 20:24:53.331,58,false,0.0,4233.205, 4353.077, 4112.051, 4195.0, 4235.0
1722050693.3393,2024-07-26 20:24:53.339,59,false,0.0,4217.051, 4362.051, 4106.923, 4184.487, 4230.256
1722050693.3471,2024-07-26 20:24:53.347,60,false,0.0,4217.82, 4355.769, 4101.026, 4185.385, 4242.18
1722050693.3549,2024-07-26 20:24:53.354,61,false,0.0,4230.0, 4357.692, 4098.59, 4185.897, 4255.0
1722050693.3627,2024-07-26 20:24:53.362,62,false,0.0,4230.256, 4364.487, 4094.231, 4183.461, 4260.385
1722050693.3705,2024-07-26 20:24:53.370,63,false,0.0,4227.564, 4357.18, 4093.205, 4186.154, 4262.308
1722050693.3784,2024-07-26 20:24:53.378,64,false,0.0,4225.256, 4358.974, 4091.795, 4181.923, 4253.846
1722050693.3862,2024-07-26 20:24:53.386,65,false,0.0,4215.256, 4372.82, 4085.128, 4177.692, 4235.256
1722050693.394,2024-07-26 20:24:53.394,66,false,0.0,4213.846, 4369.744, 4089.231, 4186.539, 4230.256
1722050693.4018,2024-07-26 20:24:53.401,67,false,0.0,4222.949, 4358.718, 4101.41, 4190.385, 4240.513
1722050693.4096,2024-07-26 20:24:53.409,68,false,0.0,4225.897, 4360.513, 4103.461, 4191.41, 4246.154
1722050693.4174,2024-07-26 20:24:53.417,69,false,0.0,4229.103, 4365.256, 4103.077, 4203.461, 4246.282
1722050693.4252,2024-07-26 20:24:53.425,70,false,0.0,4228.974, 4364.231, 4102.18, 4200.0, 4242.18
1722050693.433,2024-07-26 20:24:53.433,71,false,0.0,4214.744, 4361.923, 4090.641, 4178.461, 4228.718
1722050693.4409,2024-07-26 20:24:53.440,72,false,0.0,4208.974, 4360.641, 4085.0, 4172.692, 4220.0
1722050693.4487,2024-07-26 20:24:53.448,73,false,0.0,4213.205, 4361.154, 4092.179, 4170.641, 4220.513
1722050693.4565,2024-07-26 20:24:53.456,74,false,0.0,4204.359, 4360.769, 4095.513, 4157.564, 4218.205
1722050693.4643,2024-07-26 20:24:53.464,75,false,0.0,4202.436, 4360.385, 4098.846, 4159.487, 4217.949
1722050693.4721,2024-07-26 20:24:53.472,76,false,0.0,4217.18, 4370.128, 4105.513, 4169.615, 4218.077
1722050693.4799,2024-07-26 20:24:53.479,77,false,0.0,4217.692, 4382.308, 4104.103, 4166.154, 4208.974
1722050693.4877,2024-07-26 20:24:53.487,78,false,0.0,4211.667, 4374.872, 4096.539, 4167.564, 4203.077
1722050693.4955,2024-07-26 20:24:53.495,79,false,0.0,4219.615, 4361.923, 4091.026, 4173.205, 4200.897
1722050693.5034,2024-07-26 20:24:53.503,80,false,0.0,4223.59, 4366.923, 4096.154, 4166.923, 4193.718
1722050693.5112,2024-07-26 20:24:53.511,81,false,0.0,4222.308, 4368.077, 4111.154, 4167.82, 4197.564
1722050693.519,2024-07-26 20:24:53.519,82,false,0.0,4228.59, 4354.744, 4116.539, 4181.026, 4208.461
1722050693.5268,2024-07-26 20:24:53.526,83,false,0.0,4230.0, 4356.41, 4114.103, 4186.923, 4206.923
1722050693.5346,2024-07-26 20:24:53.534,84,false,0.0,4221.923, 4363.077, 4118.974, 4190.128, 4202.564
1722050693.5424,2024-07-26 20:24:53.542,85,false,0.0,4216.154, 4350.769, 4114.231, 4194.231, 4199.744
1722050693.5502,2024-07-26 20:24:53.550,86,false,0.0,4215.769, 4347.051, 4099.103, 4188.205, 4191.282
1722050693.558,2024-07-26 20:24:53.558,87,false,0.0,4215.769, 4353.974, 4096.41, 4179.103, 4188.205
1722050693.5659,2024-07-26 20:24:53.565,88,false,0.0,4209.231, 4342.308, 4094.487, 4173.461, 4184.744
1722050693.5737,2024-07-26 20:24:53.573,89,false,0.0,4202.949, 4340.769, 4090.641, 4168.718, 4173.974
1722050693.5815,2024-07-26 20:24:53.581,90,false,0.0,4205.256, 4360.513, 4100.0, 4173.333, 4173.974
1722050693.5893,2024-07-26 20:24:53.589,91,false,0.0,4203.461, 4357.18, 4101.282, 4183.333, 4175.897
1722050693.5971,2024-07-26 20:24:53.597,92,false,0.0,4202.436, 4348.205, 4094.615, 4184.872, 4169.487
1722050693.6049,2024-07-26 20:24:53.604,93,false,0.0,4217.436, 4362.82, 4106.026, 4186.026, 4180.641
1722050693.6127,2024-07-26 20:24:53.612,94,false,0.0,4226.026, 4359.103, 4110.0, 4194.103, 4200.0
1722050693.6205,2024-07-26 20:24:53.620,95,false,0.0,4223.205, 4342.82, 4095.256, 4198.718, 4197.564
1722050693.6284,2024-07-26 20:24:53.628,96,false,0.0,4233.974, 4357.051, 4099.487, 4197.18, 4191.41
1722050693.6362,2024-07-26 20:24:53.636,97,false,0.0,4238.461, 4362.692, 4110.128, 4192.564, 4190.513
1722050693.644,2024-07-26 20:24:53.644,98,false,0.0,4220.641, 4344.615, 4102.18, 4188.205, 4180.641
1722050693.6518,2024-07-26 20:24:53.651,99,false,0.0,4215.128, 4355.0, 4103.846, 4190.513, 4179.359
1722050693.6596,2024-07-26 20:24:53.659,100,false,0.0,4225.513, 4365.897, 4114.103, 4196.667, 4199.872
1722050693.6674,2024-07-26 20:24:53.667,101,false,0.0,4227.051, 4332.949, 4104.872, 4197.692, 4219.615
1722050693.6752,2024-07-26 20:24:53.675,102,false,0.0,4227.564, 4316.026, 4092.179, 4193.974, 4225.0
1722050693.683,2024-07-26 20:24:53.683,103,false,0.0,4234.231, 4337.564, 4089.231, 4191.795, 4226.923
1722050693.6909,2024-07-26 20:24:53.690,104,false,0.0,4236.026, 4337.692, 4085.897, 4196.026, 4237.308
1722050693.6987,2024-07-26 20:24:53.698,105,false,0.0,4235.0, 4326.667, 4091.282, 4205.385, 4246.795
1722050693.7065,2024-07-26 20:24:53.706,106,false,0.0,4238.59, 4345.769, 4107.436, 4209.359, 4243.461
1722050693.7143,2024-07-26 20:24:53.714,107,false,0.0,4245.0, 4356.923, 4111.026, 4206.026, 4243.718
1722050693.7221,2024-07-26 20:24:53.722,108,false,0.0,4244.744, 4331.795, 4102.18, 4205.897, 4251.282
1722050693.7299,2024-07-26 20:24:53.729,109,false,0.0,4237.308, 4314.872, 4104.487, 4210.128, 4244.744
1722050693.7377,2024-07-26 20:24:53.737,110,false,0.0,4242.82, 4330.897, 4120.256, 4216.539, 4243.205
1722050693.7455,2024-07-26 20:24:53.745,111,false,0.0,4260.769, 4350.256, 4128.718, 4226.795, 4261.539
1722050693.7534,2024-07-26 20:24:53.753,112,false,0.0,4260.128, 4345.769, 4121.667, 4229.103, 4257.308
1722050693.7612,2024-07-26 20:24:53.761,113,false,0.0,4237.82, 4327.564, 4113.846, 4213.718, 4228.461
1722050693.769,2024-07-26 20:24:53.769,114,false,0.0,4221.923, 4323.718, 4113.846, 4202.18, 4221.026
1722050693.7768,2024-07-26 20:24:53.776,115,false,0.0,4222.564, 4335.769, 4113.59, 4211.539, 4226.41
1722050693.7846,2024-07-26 20:24:53.784,116,false,0.0,4224.359, 4340.385, 4111.795, 4219.103, 4219.744
1722050693.7924,2024-07-26 20:24:53.792,117,false,0.0,4220.256, 4341.41, 4116.282, 4215.256, 4221.795
1722050693.8002,2024-07-26 20:24:53.800,118,false,0.0,4222.82, 4357.051, 4127.436, 4223.461, 4241.154
1722050693.808,2024-07-26 20:24:53.808,119,false,0.0,4233.974, 4368.974, 4137.051, 4235.128, 4258.59
1722050693.8159,2024-07-26 20:24:53.815,120,false,0.0,4238.59, 4363.718, 4137.436, 4230.256, 4272.051
1722050693.8237,2024-07-26 20:24:53.823,121,false,0.0,4240.385, 4360.897, 4133.974, 4228.974, 4286.41
1722050693.8315,2024-07-26 20:24:53.831,122,false,0.0,4244.231, 4355.128, 4131.539, 4230.897, 4292.949
1722050693.8393,2024-07-26 20:24:53.839,123,false,0.0,4231.667, 4338.718, 4121.923, 4210.897, 4287.82
1722050693.8471,2024-07-26 20:24:53.847,124,false,0.0,4213.846, 4342.308, 4110.0, 4195.641, 4283.846
1722050693.8549,2024-07-26 20:24:53.854,125,false,0.0,4218.205, 4361.282, 4112.308, 4204.615, 4287.692
1722050693.8627,2024-07-26 20:24:53.862,126,false,0.0,4225.769, 4357.949, 4117.308, 4199.103, 4288.077
1722050693.8705,2024-07-26 20:24:53.870,127,false,0.0,4217.949, 4346.795, 4111.154, 4179.615, 4283.974
1722050693.8784,2024-07-26 20:24:53.878,0,false,0.0,4209.744, 4346.923, 4109.487, 4177.82, 4284.615
1722050693.8862,2024-07-26 20:24:53.886,1,false,0.0,4204.744, 4342.051, 4111.795, 4178.59, 4284.744
1722050693.894,2024-07-26 20:24:53.894,2,false,0.0,4207.564, 4344.103, 4108.077, 4180.128, 4285.641
1722050693.9018,2024-07-26 20:24:53.901,3,false,0.0,4231.282, 4366.026, 4121.026, 4203.59, 4303.718
1722050693.9096,2024-07-26 20:24:53.909,4,false,0.0,4250.897, 4373.974, 4145.513, 4221.154, 4323.846
1722050693.9174,2024-07-26 20:24:53.917,5,false,0.0,4243.718, 4357.692, 4138.718, 4211.795, 4320.385
1722050693.9252,2024-07-26 20:24:53.925,6,false,0.0,4239.487, 4345.897, 4116.667, 4207.564, 4311.795
1722050693.933,2024-07-26 20:24:53.933,7,false,0.0,4246.539, 4347.308, 4118.718, 4213.333, 4311.026
1722050693.9409,2024-07-26 20:24:53.940,8,false,0.0,4231.667, 4347.949, 4121.795, 4202.564, 4292.308
1722050693.9487,2024-07-26 20:24:53.948,9,false,0.0,4207.82, 4341.795, 4111.41, 4188.461, 4270.897
1722050693.9565,2024-07-26 20:24:53.956,10,false,0.0,4217.82, 4341.539, 4115.128, 4196.667, 4285.769
1722050693.9643,2024-07-26 20:24:53.964,11,false,0.0,4241.282, 4351.026, 4122.051, 4211.667, 4306.41
1722050693.9721,2024-07-26 20:24:53.972,12,false,0.0,4237.82, 4351.154, 4111.667, 4211.026, 4297.051
1722050693.9799,2024-07-26 20:24:53.979,13,false,0.0,4223.718, 4348.077, 4107.051, 4204.231, 4288.59
1722050693.9877,2024-07-26 20:24:53.987,14,false,0.0,4216.667, 4360.128, 4112.949, 4201.667, 4290.385
1722050693.9955,2024-07-26 20:24:53.995,15,false,0.0,4208.974, 4360.385, 4113.333, 4200.641, 4285.385
1722050694.0034,2024-07-26 20:24:54.003,16,false,0.0,4214.231, 4347.051, 4119.615, 4211.026, 4297.82
1722050694.0112,2024-07-26 20:24:54.011,17,false,0.0,4232.436, 4360.128, 4132.051, 4226.795, 4324.359
1722050694.019,2024-07-26 20:24:54.019,18,false,0.0,4232.692, 4374.744, 4132.436, 4221.667, 4324.231
1722050694.0268,2024-07-26 20:24:54.026,19,false,0.0,4222.82, 4357.436, 4125.769, 4207.564, 4314.231
1722050694.0346,2024-07-26 20:24:54.034,20,false,0.0,4224.103, 4348.333, 4113.461, 4204.872, 4315.128
1722050694.0424,2024-07-26 20:24:54.042,21,false,0.0,4217.82, 4355.769, 4094.231, 4194.615, 4301.795
1722050694.0502,2024-07-26 20:24:54.050,22,false,0.0,4207.18, 4347.564, 4089.744, 4179.872, 4289.103
1722050694.058,2024-07-26 20:24:54.058,23,false,0.0,4215.128, 4341.667, 4099.872, 4187.308, 4302.692
1722050694.0659,2024-07-26 20:24:54.065,24,false,0.0,4222.692, 4347.949, 4098.974, 4199.744, 4313.461
1722050694.0737,2024-07-26 20:24:54.073,25,false,0.0,4217.82, 4346.282, 4091.41, 4195.128, 4305.641
1722050694.0815,2024-07-26 20:24:54.081,26,false,0.0,4217.308, 4350.0, 4086.795, 4182.436, 4293.333
1722050694.0893,2024-07-26 20:24:54.089,27,false,0.0,4212.949, 4359.231, 4076.282, 4169.744, 4281.026
1722050694.0971,2024-07-26 20:24:54.097,28,false,0.0,4204.615, 4349.872, 4070.641, 4167.051, 4285.641
1722050694.1049,2024-07-26 20:24:54.104,29,false,0.0,4215.0, 4339.487, 4080.0, 4178.846, 4309.615
1722050694.1127,2024-07-26 20:24:54.112,30,false,0.0,4228.333, 4342.051, 4088.461, 4185.641, 4317.949
1722050694.1205,2024-07-26 20:24:54.120,31,false,0.0,4226.795, 4342.564, 4093.461, 4187.436, 4311.41
1722050694.1284,2024-07-26 20:24:54.128,32,false,0.0,4229.231, 4348.718, 4101.539, 4194.872, 4315.256
1722050694.1362,2024-07-26 20:24:54.136,33,false,0.0,4231.026, 4356.667, 4100.769, 4192.949, 4316.795
1722050694.144,2024-07-26 20:24:54.144,34,false,0.0,4220.128, 4347.564, 4093.461, 4186.539, 4309.359
1722050694.1518,2024-07-26 20:24:54.151,35,false,0.0,4221.154, 4342.436, 4095.256, 4192.949, 4307.949
1722050694.1596,2024-07-26 20:24:54.159,36,false,0.0,4230.256, 4345.128, 4094.615, 4189.872, 4302.18
1722050694.1674,2024-07-26 20:24:54.167,37,false,0.0,4219.487, 4332.051, 4082.564, 4173.077, 4288.846
1722050694.1752,2024-07-26 20:24:54.175,38,false,0.0,4210.641, 4332.949, 4080.641, 4175.769, 4292.692
1722050694.183,2024-07-26 20:24:54.183,39,false,0.0,4223.077, 4359.615, 4094.359, 4192.564, 4309.872
1722050694.1909,2024-07-26 20:24:54.190,40,false,0.0,4230.128, 4359.872, 4102.308, 4195.641, 4315.897
1722050694.1987,2024-07-26 20:24:54.198,41,false,0.0,4222.692, 4341.282, 4097.82, 4189.231, 4309.103
1722050694.2065,2024-07-26 20:24:54.206,42,false,0.0,4214.744, 4349.872, 4092.179, 4182.308, 4297.051
1722050694.2143,2024-07-26 20:24:54.214,43,false,0.0,4204.231, 4360.641, 4091.539, 4173.846, 4283.205
1722050694.2221,2024-07-26 20:24:54.222,44,false,0.0,4191.026, 4350.128, 4092.949, 4167.436, 4271.923
1722050694.2299,2024-07-26 20:24:54.229,45,false,0.0,4189.231, 4346.026, 4091.282, 4168.718, 4267.564
1722050694.2377,2024-07-26 20:24:54.237,46,false,0.0,4210.256, 4356.154, 4089.744, 4180.769, 4277.949
1722050694.2455,2024-07-26 20:24:54.245,47,false,0.0,4240.897, 4366.154, 4089.231, 4186.41, 4293.205
1722050694.2534,2024-07-26 20:24:54.253,48,false,0.0,4247.18, 4364.231, 4081.154, 4167.564, 4282.82
1722050694.2612,2024-07-26 20:24:54.261,49,false,0.0,4233.718, 4349.872, 4072.051, 4149.231, 4256.923
1722050694.269,2024-07-26 20:24:54.269,50,false,0.0,4237.692, 4346.282, 4075.128, 4150.128, 4250.256
1722050694.2768,2024-07-26 20:24:54.276,51,false,0.0,4243.59, 4353.718, 4074.744, 4142.564, 4244.872
1722050694.2846,2024-07-26 20:24:54.284,52,false,0.0,4221.667, 4348.59, 4062.692, 4125.128, 4220.385
1722050694.2924,2024-07-26 20:24:54.292,53,false,0.0,4207.949, 4346.026, 4065.0, 4127.564, 4215.0
1722050694.3002,2024-07-26 20:24:54.300,54,false,0.0,4227.692, 4359.872, 4086.923, 4146.795, 4242.308
1722050694.308,2024-07-26 20:24:54.308,55,false,0.0,4240.769, 4366.667, 4100.641, 4161.667, 4258.333
1722050694.3159,2024-07-26 20:24:54.315,56,false,0.0,4230.769, 4366.282, 4099.231, 4164.615, 4247.436
1722050694.3237,2024-07-26 20:24:54.323,57,false,0.0,4225.128, 4369.487, 4099.744, 4156.539, 4237.564
1722050694.3315,2024-07-26 20:24:54.331,58,false,0.0,4227.18, 4365.513, 4104.872, 4152.564, 4238.077
1722050694.3393,2024-07-26 20:24:54.339,59,false,0.0,4220.385, 4358.718, 4098.333, 4157.949, 4232.18
1722050694.3471,2024-07-26 20:24:54.347,60,false,0.0,4212.82, 4358.974, 4080.641, 4158.461, 4217.308
1722050694.3549,2024-07-26 20:24:54.354,61,false,0.0,4219.103, 4361.154, 4082.821, 4159.231, 4212.949
1722050694.3627,2024-07-26 20:24:54.362,62,false,0.0,4227.308, 4365.256, 4108.974, 4167.82, 4221.41
1722050694.3705,2024-07-26 20:24:54.370,63,false,0.0,4220.897, 4363.846, 4118.077, 4168.333, 4215.385
1722050694.3784,2024-07-26 20:24:54.378,64,false,0.0,4206.154, 4352.949, 4098.846, 4158.846, 4191.923
1722050694.3862,2024-07-26 20:24:54.386,65,false,0.0,4199.359, 4352.308, 4086.539, 4155.0, 4183.846
1722050694.394,2024-07-26 20:24:54.394,66,false,0.0,4203.59, 4359.615, 4093.205, 4158.077, 4197.18
1722050694.4018,2024-07-26 20:24:54.401,67,false,0.0,4204.103, 4354.872, 4098.077, 4163.205, 4203.205
1722050694.4096,2024-07-26 20:24:54.409,68,false,0.0,4193.974, 4349.744, 4092.051, 4167.051, 4201.539
1722050694.4174,2024-07-26 20:24:54.417,69,false,0.0,4193.205, 4360.0, 4087.692, 4167.308, 4215.897
1722050694.4252,2024-07-26 20:24:54.425,70,false,0.0,4208.333, 4375.0, 4094.103, 4164.615, 4233.846
1722050694.433,2024-07-26 20:24:54.433,71,false,0.0,4211.282, 4379.744, 4097.564, 4155.256, 4233.077
1722050694.4409,2024-07-26 20:24:54.440,72,false,0.0,4202.949, 4372.692, 4089.744, 4147.18, 4233.461
1722050694.4487,2024-07-26 20:24:54.448,73,false,0.0,4212.308, 4366.667, 4090.769, 4157.18, 4248.461
1722050694.4565,2024-07-26 20:24:54.456,74,false,0.0,4225.897, 4367.564, 4103.205, 4166.795, 4255.0
1722050694.4643,2024-07-26 20:24:54.464,75,false,0.0,4221.282, 4371.539, 4103.846, 4156.026, 4252.564
1722050694.4721,2024-07-26 20:24:54.472,76,false,0.0,4214.872, 4380.641, 4096.026, 4150.641, 4256.923
1722050694.4799,2024-07-26 20:24:54.479,77,false,0.0,4214.615, 4383.461, 4095.0, 4161.026, 4258.205
1722050694.4877,2024-07-26 20:24:54.487,78,false,0.0,4211.667, 4368.974, 4093.974, 4160.897, 4255.0
1722050694.4955,2024-07-26 20:24:54.495,79,false,0.0,4212.949, 4361.282, 4092.692, 4153.974, 4260.513
1722050694.5034,2024-07-26 20:24:54.503,80,false,0.0,4218.461, 4367.564, 4095.0, 4158.59, 4267.051
1722050694.5112,2024-07-26 20:24:54.511,81,false,0.0,4216.026, 4367.051, 4090.769, 4159.744, 4267.18
1722050694.519,2024-07-26 20:24:54.519,82,false,0.0,4213.077, 4371.667, 4086.539, 4149.103, 4267.308
1722050694.5268,2024-07-26 20:24:54.526,83,false,0.0,4221.154, 4386.41, 4096.41, 4147.051, 4270.641
1722050694.5346,2024-07-26 20:24:54.534,84,false,0.0,4230.385, 4381.539, 4103.205, 4158.718, 4276.795
1722050694.5424,2024-07-26 20:24:54.542,85,false,0.0,4229.487, 4362.82, 4096.282, 4165.385, 4275.128
1722050694.5502,2024-07-26 20:24:54.550,86,false,0.0,4228.974, 4361.795, 4100.256, 4164.872, 4267.308
1722050694.558,2024-07-26 20:24:54.558,87,false,0.0,4239.103, 4374.744, 4121.282, 4171.795, 4276.795
1722050694.5659,2024-07-26 20:24:54.565,88,false,0.0,4241.41, 4374.615, 4125.256, 4177.692, 4286.026
1722050694.5737,2024-07-26 20:24:54.573,89,false,0.0,4223.077, 4353.974, 4101.41, 4166.154, 4263.846
1722050694.5815,2024-07-26 20:24:54.581,90,false,0.0,4210.641, 4345.897, 4090.769, 4158.333, 4249.487
1722050694.5893,2024-07-26 20:24:54.589,91,false,0.0,4219.359, 4368.846, 4113.077, 4171.667, 4270.128
1722050694.5971,2024-07-26 20:24:54.597,92,false,0.0,4224.231, 4378.59, 4130.256, 4181.539, 4281.154
1722050694.6049,2024-07-26 20:24:54.604,93,false,0.0,4217.308, 4362.308, 4123.077, 4175.256, 4271.41
1722050694.6127,2024-07-26 20:24:54.612,94,false,0.0,4214.744, 4365.769, 4119.231, 4167.82, 4268.718
1722050694.6205,2024-07-26 20:24:54.620,95,false,0.0,4212.436, 4373.846, 4119.615, 4158.333, 4269.359
1722050694.6284,2024-07-26 20:24:54.628,96,false,0.0,4199.359, 4347.692, 4098.974, 4141.795, 4264.615
1722050694.6362,2024-07-26 20:24:54.636,97,false,0.0,4187.564, 4327.051, 4076.026, 4133.461, 4261.282
1722050694.644,2024-07-26 20:24:54.644,98,false,0.0,4192.436, 4343.59, 4082.179, 4142.692, 4265.513
1722050694.6518,2024-07-26 20:24:54.651,99,false,0.0,4206.41, 4362.82, 4097.436, 4156.41, 4280.385
1722050694.6596,2024-07-26 20:24:54.659,100,false,0.0,4212.18, 4363.333, 4091.667, 4161.282, 4290.128
1722050694.6674,2024-07-26 20:24:54.667,101,false,0.0,4211.282, 4357.692, 4083.846, 4162.308, 4286.154
1722050694.6752,2024-07-26 20:24:54.675,102,false,0.0,4211.026, 4354.231, 4094.872, 4166.795, 4288.846
1722050694.683,2024-07-26 20:24:54.683,103,false,0.0,4209.231, 4348.846, 4105.0, 4168.461, 4299.103
1722050694.6909,2024-07-26 20:24:54.690,104,false,0.0,4213.59, 4341.923, 4103.333, 4167.051, 4304.359
1722050694.6987,2024-07-26 20:24:54.698,105,false,0.0,4229.231, 4346.923, 4103.59, 4168.205, 4310.641
1722050694.7065,2024-07-26 20:24:54.706,106,false,0.0,4237.436, 4357.051, 4101.539, 4165.769, 4312.18
1722050694.7143,2024-07-26 20:24:54.714,107,false,0.0,4237.051, 4353.718, 4095.256, 4166.026, 4308.077
1722050694.7221,2024-07-26 20:24:54.722,108,false,0.0,4242.692, 4352.18, 4096.154, 4177.692, 4314.103
1722050694.7299,2024-07-26 20:24:54.729,109,false,0.0,4239.359, 4360.385, 4093.974, 4178.846, 4311.667
1722050694.7377,2024-07-26 20:24:54.737,110,false,0.0,4226.154, 4358.077, 4087.051, 4171.154, 4295.641
1722050694.7455,2024-07-26 20:24:54.745,111,false,0.0,4233.718, 4353.59, 4096.154, 4186.026, 4303.077
1722050694.7534,2024-07-26 20:24:54.753,112,false,0.0,4247.692, 4360.897, 4105.897, 4198.461, 4315.513
1722050694.7612,2024-07-26 20:24:54.761,113,false,0.0,4235.385, 4362.564, 4098.205, 4178.333, 4299.487
1722050694.769,2024-07-26 20:24:54.769,114,false,0.0,4219.615, 4354.744, 4097.18, 4165.769, 4292.564
1722050694.7768,2024-07-26 20:24:54.776,115,false,0.0,4226.539, 4350.769, 4106.667, 4180.897, 4309.744
1722050694.7846,2024-07-26 20:24:54.784,116,false,0.0,4236.795, 4355.385, 4106.154, 4186.795, 4313.59
1722050694.7924,2024-07-26 20:24:54.792,117,false,0.0,4226.923, 4361.539, 4096.026, 4173.077, 4302.949
1722050694.8002,2024-07-26 20:24:54.800,118,false,0.0,4205.128, 4352.18, 4081.795, 4160.897, 4293.461
1722050694.808,2024-07-26 20:24:54.808,119,false,0.0,4201.923, 4339.487, 4078.205, 4164.103, 4290.641
1722050694.8159,2024-07-26 20:24:54.815,120,false,0.0,4219.231, 4347.564, 4093.205, 4174.615, 4303.077
1722050694.8237,2024-07-26 20:24:54.823,121,false,0.0,4215.385, 4345.769, 4087.949, 4166.026, 4310.0
1722050694.8315,2024-07-26 20:24:54.831,122,false,0.0,4193.077, 4325.0, 4060.641, 4147.308, 4294.744
1722050694.8393,2024-07-26 20:24:54.839,123,false,0.0,4198.974, 4334.103, 4065.513, 4154.103, 4295.256
1722050694.8471,2024-07-26 20:24:54.847,124,false,0.0,4218.333, 4353.333, 4087.821, 4168.974, 4320.128
1722050694.8549,2024-07-26 20:24:54.854,125,false,0.0,4217.18, 4343.718, 4081.795, 4165.256, 4331.539
1722050694.8627,2024-07-26 20:24:54.862,126,false,0.0,4215.385, 4347.18, 4073.718, 4166.154, 4329.615
1722050694.8705,2024-07-26 20:24:54.870,127,false,0.0,4212.949, 4362.308, 4079.103, 4169.359, 4327.18
1722050694.8784,2024-07-26 20:24:54.878,0,false,0.0,4189.872, 4345.385, 4072.308, 4152.82, 4316.154
1722050694.8862,2024-07-26 20:24:54.886,1,false,0.0,4177.82, 4337.949, 4065.128, 4145.641, 4309.359
1722050694.894,2024-07-26 20:24:54.894,2,false,0.0,4194.103, 4358.205, 4069.744, 4156.539, 4319.359
1722050694.9018,2024-07-26 20:24:54.901,3,false,0.0,4205.385, 4351.282, 4068.077, 4148.461, 4330.256
1722050694.9096,2024-07-26 20:24:54.909,4,false,0.0,4210.513, 4338.205, 4066.539, 4134.615, 4341.923
1722050694.9174,2024-07-26 20:24:54.917,5,false,0.0,4226.282, 4359.744, 4071.539, 4149.231, 4361.026
1722050694.9252,2024-07-26 20:24:54.925,6,false,0.0,4235.0, 4371.41, 4063.718, 4163.846, 4372.18
1722050694.933,2024-07-26 20:24:54.933,7,false,0.0,4235.513, 4358.333, 4050.385, 4154.103, 4378.461
1722050694.9409,2024-07-26 20:24:54.940,8,false,0.0,4253.974, 4358.59, 4053.205, 4145.385, 4403.333
1722050694.9487,2024-07-26 20:24:54.948,9,false,0.0,4283.846, 4362.051, 4059.487, 4146.026, 4437.692
1722050694.9565,2024-07-26 20:24:54.956,10,false,0.0,4302.436, 4355.897, 4057.436, 4140.769, 4458.718
1722050694.9643,2024-07-26 20:24:54.964,11,false,0.0,4320.128, 4360.641, 4055.513, 4136.026, 4478.59
1722050694.9721,2024-07-26 20:24:54.972,12,false,0.0,4351.282, 4364.231, 4049.744, 4140.256, 4513.59
1722050694.9799,2024-07-26 20:24:54.979,13,false,0.0,4383.333, 4350.256, 4037.949, 4143.846, 4543.59
1722050694.9877,2024-07-26 20:24:54.987,14,false,0.0,4401.154, 4341.539, 4034.103, 4140.0, 4549.103
1722050694.9955,2024-07-26 20:24:54.995,15,false,0.0,4407.436, 4343.333, 4036.41, 4134.744, 4548.077
1722050695.0034,2024-07-26 20:24:55.003,16,false,0.0,4417.949, 4338.718, 4039.615, 4142.82, 4565.0
1722050695.0112,2024-07-26 20:24:55.011,17,false,0.0,4440.385, 4341.539, 4057.308, 4165.641, 4591.795
1722050695.019,2024-07-26 20:24:55.019,18,false,0.0,4448.846, 4358.846, 4075.641, 4174.744, 4598.333
1722050695.0268,2024-07-26 20:24:55.026,19,false,0.0,4422.436, 4362.82, 4065.0, 4162.18, 4574.231
1722050695.0346,2024-07-26 20:24:55.034,20,false,0.0,4395.641, 4351.667, 4051.923, 4159.103, 4544.615
1722050695.0424,2024-07-26 20:24:55.042,21,false,0.0,4392.436, 4351.154, 4068.461, 4166.667, 4530.385
1722050695.0502,2024-07-26 20:24:55.050,22,false,0.0,4384.615, 4357.308, 4087.436, 4162.949, 4521.667
1722050695.058,2024-07-26 20:24:55.058,23,false,0.0,4368.974, 4356.923, 4089.359, 4162.051, 4508.461
1722050695.0659,2024-07-26 20:24:55.065,24,false,0.0,4364.231, 4357.051, 4090.385, 4167.308, 4492.82
1722050695.0737,2024-07-26 20:24:55.073,25,false,0.0,4352.692, 4357.949, 4087.179, 4153.974, 4471.41
1722050695.0815,2024-07-26 20:24:55.081,26,false,0.0,4331.539, 4352.949, 4073.461, 4138.333, 4445.513
1722050695.0893,2024-07-26 20:24:55.089,27,false,0.0,4320.256, 4347.18, 4065.897, 4142.949, 4425.0
1722050695.0971,2024-07-26 20:24:55.097,28,false,0.0,4305.513, 4346.539, 4068.846, 4149.487, 4411.154
1722050695.1049,2024-07-26 20:24:55.104,29,false,0.0,4289.615, 4351.154, 4072.436, 4157.18, 4402.692
1722050695.1127,2024-07-26 20:24:55.112,30,false,0.0,4296.667, 4357.82, 4077.949, 4174.487, 4398.974
1722050695.1205,2024-07-26 20:24:55.120,31,false,0.0,4300.385, 4358.461, 4081.539, 4175.385, 4390.256
1722050695.1284,2024-07-26 20:24:55.128,32,false,0.0,4275.0, 4350.0, 4070.769, 4160.385, 4367.82
1722050695.1362,2024-07-26 20:24:55.136,33,false,0.0,4255.0, 4342.564, 4055.897, 4162.436, 4341.795
1722050695.144,2024-07-26 20:24:55.144,34,false,0.0,4258.59, 4347.692, 4059.103, 4174.872, 4331.923
1722050695.1518,2024-07-26 20:24:55.151,35,false,0.0,4259.231, 4356.41, 4068.461, 4177.308, 4331.539
1722050695.1596,2024-07-26 20:24:55.159,36,false,0.0,4247.436, 4350.513, 4061.795, 4175.385, 4314.359
1722050695.1674,2024-07-26 20:24:55.167,37,false,0.0,4239.359, 4345.256, 4057.692, 4174.103, 4291.667
1722050695.1752,2024-07-26 20:24:55.175,38,false,0.0,4240.513, 4358.205, 4071.923, 4174.103, 4290.0
1722050695.183,2024-07-26 20:24:55.183,39,false,0.0,4241.282, 4362.18, 4080.513, 4175.256, 4286.539
1722050695.1909,2024-07-26 20:24:55.190,40,false,0.0,4239.615, 4352.692, 4079.487, 4170.769, 4267.18
1722050695.1987,2024-07-26 20:24:55.198,41,false,0.0,4241.154, 4362.308, 4086.667, 4167.051, 4262.949
1722050695.2065,2024-07-26 20:24:55.206,42,false,0.0,4234.872, 4368.205, 4085.769, 4170.0, 4263.333
1722050695.2143,2024-07-26 20:24:55.214,43,false,0.0,4215.0, 4341.539, 4068.974, 4168.718, 4240.897
1722050695.2221,2024-07-26 20:24:55.222,44,false,0.0,4201.667, 4328.205, 4067.179, 4166.282, 4223.333
1722050695.2299,2024-07-26 20:24:55.229,45,false,0.0,4199.615, 4345.513, 4080.0, 4169.615, 4224.103
1722050695.2377,2024-07-26 20:24:55.237,46,false,0.0,4196.667, 4352.82, 4080.897, 4171.026, 4218.846
1722050695.2455,2024-07-26 20:24:55.245,47,false,0.0,4200.897, 4352.308, 4077.564, 4174.359, 4212.308
1722050695.2534,2024-07-26 20:24:55.253,48,false,0.0,4210.0, 4359.103, 4082.179, 4182.18, 4213.333
1722050695.2612,2024-07-26 20:24:55.261,49,false,0.0,4208.461, 4355.897, 4084.103, 4181.41, 4210.385
1722050695.269,2024-07-26 20:24:55.269,50,false,0.0,4205.769, 4352.564, 4081.923, 4176.282, 4205.769
1722050695.2768,2024-07-26 20:24:55.276,51,false,0.0,4205.128, 4363.205, 4078.333, 4172.308, 4197.308
1722050695.2846,2024-07-26 20:24:55.284,52,false,0.0,4193.333, 4362.18, 4070.641, 4162.692, 4182.564
1722050695.2924,2024-07-26 20:24:55.292,53,false,0.0,4186.795, 4346.795, 4066.154, 4160.513, 4180.0
1722050695.3002,2024-07-26 20:24:55.300,54,false,0.0,4198.461, 4344.103, 4072.179, 4171.923, 4185.385
1722050695.308,2024-07-26 20:24:55.308,55,false,0.0,4208.718, 4351.667, 4085.0, 4179.359, 4182.82
1722050695.3159,2024-07-26 20:24:55.315,56,false,0.0,4210.0, 4352.82, 4093.974, 4182.051, 4184.103
1722050695.3237,2024-07-26 20:24:55.323,57,false,0.0,4204.615, 4345.769, 4085.385, 4179.744, 4183.974
1722050695.3315,2024-07-26 20:24:55.331,58,false,0.0,4194.872, 4340.128, 4071.154, 4167.949, 4170.385
1722050695.3393,2024-07-26 20:24:55.339,59,false,0.0,4202.308, 4347.82, 4079.103, 4168.846, 4170.769
1722050695.3471,2024-07-26 20:24:55.347,60,false,0.0,4220.641, 4360.256, 4093.461, 4180.897, 4183.846
1722050695.3549,2024-07-26 20:24:55.354,61,false,0.0,4214.744, 4359.744, 4088.718, 4174.872, 4174.487
1722050695.3627,2024-07-26 20:24:55.362,62,false,0.0,4204.231, 4356.41, 4082.949, 4167.692, 4160.769
1722050695.3705,2024-07-26 20:24:55.370,63,false,0.0,4213.718, 4358.718, 4081.539, 4174.615, 4160.897
1722050695.3784,2024-07-26 20:24:55.378,64,false,0.0,4212.82, 4352.564, 4069.744, 4171.667, 4149.744
1722050695.3862,2024-07-26 20:24:55.386,65,false,0.0,4203.718, 4345.897, 4067.564, 4168.59, 4138.077
1722050695.394,2024-07-26 20:24:55.394,66,false,0.0,4209.872, 4350.0, 4078.974, 4177.949, 4143.974
1722050695.4018,2024-07-26 20:24:55.401,67,false,0.0,4202.564, 4343.333, 4078.718, 4173.333, 4133.205
1722050695.4096,2024-07-26 20:24:55.409,68,false,0.0,4180.641, 4330.128, 4080.897, 4166.539, 4105.769
1722050695.4174,2024-07-26 20:24:55.417,69,false,0.0,4179.615, 4340.513, 4090.769, 4178.974, 4098.205
1722050695.4252,2024-07-26 20:24:55.425,70,false,0.0,4178.333, 4353.077, 4076.923, 4178.205, 4095.897
1722050695.433,2024-07-26 20:24:55.433,71,false,0.0,4162.692, 4345.641, 4060.385, 4164.103, 4084.744
1722050695.4409,2024-07-26 20:24:55.440,72,false,0.0,4163.205, 4351.026, 4075.256, 4168.974, 4085.769
1722050695.4487,2024-07-26 20:24:55.448,73,false,0.0,4163.077, 4359.872, 4082.564, 4169.615, 4085.897
1722050695.4565,2024-07-26 20:24:55.456,74,false,0.0,4143.205, 4334.231, 4061.154, 4149.615, 4065.641
1722050695.4643,2024-07-26 20:24:55.464,75,false,0.0,4144.231, 4321.667, 4053.846, 4147.308, 4055.256
1722050695.4721,2024-07-26 20:24:55.472,76,false,0.0,4170.385, 4355.769, 4072.564, 4167.18, 4069.872
1722050695.4799,2024-07-26 20:24:55.479,77,false,0.0,4180.256, 4371.795, 4087.564, 4174.487, 4080.128
1722050695.4877,2024-07-26 20:24:55.487,78,false,0.0,4172.436, 4355.641, 4087.692, 4166.154, 4072.051
1722050695.4955,2024-07-26 20:24:55.495,79,false,0.0,4168.077, 4352.949, 4081.026, 4164.487, 4062.564
1722050695.5034,2024-07-26 20:24:55.503,80,false,0.0,4173.205, 4346.026, 4075.641, 4173.333, 4066.026
1722050695.5112,2024-07-26 20:24:55.511,81,false,0.0,4182.692, 4328.59, 4073.718, 4176.41, 4075.128
1722050695.519,2024-07-26 20:24:55.519,82,false,0.0,4178.974, 4339.487, 4070.641, 4167.308, 4072.179
1722050695.5268,2024-07-26 20:24:55.526,83,false,0.0,4162.051, 4353.077, 4067.051, 4161.026, 4061.41
1722050695.5346,2024-07-26 20:24:55.534,84,false,0.0,4158.974, 4343.333, 4070.769, 4165.128, 4061.667
1722050695.5424,2024-07-26 20:24:55.542,85,false,0.0,4171.667, 4347.949, 4080.641, 4168.461, 4067.179
1722050695.5502,2024-07-26 20:24:55.550,86,false,0.0,4175.513, 4358.205, 4085.0, 4164.615, 4060.769
1722050695.558,2024-07-26 20:24:55.558,87,false,0.0,4167.308, 4343.718, 4080.0, 4158.59, 4052.051
1722050695.5659,2024-07-26 20:24:55.565,88,false,0.0,4161.795, 4337.564, 4072.308, 4159.744, 4055.256
1722050695.5737,2024-07-26 20:24:55.573,89,false,0.0,4164.359, 4351.026, 4067.051, 4170.0, 4061.41
1722050695.5815,2024-07-26 20:24:55.581,90,false,0.0,4171.923, 4354.359, 4064.615, 4174.231, 4064.231
1722050695.5893,2024-07-26 20:24:55.589,91,false,0.0,4177.308, 4352.949, 4062.692, 4163.718, 4070.256
1722050695.5971,2024-07-26 20:24:55.597,92,false,0.0,4176.026, 4350.256, 4061.282, 4155.0, 4078.846
1722050695.6049,2024-07-26 20:24:55.604,93,false,0.0,4174.872, 4333.974, 4065.897, 4159.231, 4088.461
1722050695.6127,2024-07-26 20:24:55.612,94,false,0.0,4172.82, 4322.949, 4068.846, 4159.744, 4094.744
1722050695.6205,2024-07-26 20:24:55.620,95,false,0.0,4157.308, 4326.41, 4057.051, 4141.667, 4085.897
1722050695.6284,2024-07-26 20:24:55.628,96,false,0.0,4142.692, 4330.769, 4052.692, 4126.923, 4079.231
1722050695.6362,2024-07-26 20:24:55.636,97,false,0.0,4153.974, 4337.564, 4072.179, 4142.18, 4100.897
1722050695.644,2024-07-26 20:24:55.644,98,false,0.0,4169.103, 4337.18, 4081.282, 4162.308, 4123.846
1722050695.6518,2024-07-26 20:24:55.651,99,false,0.0,4161.539, 4317.18, 4067.308, 4154.231, 4121.154
1722050695.6596,2024-07-26 20:24:55.659,100,false,0.0,4154.231, 4305.897, 4065.513, 4143.974, 4121.41
1722050695.6674,2024-07-26 20:24:55.667,101,false,0.0,4162.051, 4320.641, 4079.231, 4158.461, 4139.231
1722050695.6752,2024-07-26 20:24:55.675,102,false,0.0,4169.359, 4338.974, 4083.974, 4174.359, 4152.308
1722050695.683,2024-07-26 20:24:55.683,103,false,0.0,4175.0, 4344.487, 4079.359, 4172.692, 4155.128
1722050695.6909,2024-07-26 20:24:55.690,104,false,0.0,4177.051, 4338.461, 4071.539, 4161.667, 4152.308
1722050695.6987,2024-07-26 20:24:55.698,105,false,0.0,4170.256, 4334.615, 4068.333, 4152.949, 4150.513
1722050695.7065,2024-07-26 20:24:55.706,106,false,0.0,4173.333, 4342.564, 4074.103, 4158.718, 4158.974
1722050695.7143,2024-07-26 20:24:55.714,107,false,0.0,4181.795, 4341.154, 4069.231, 4167.051, 4160.256
1722050695.7221,2024-07-26 20:24:55.722,108,false,0.0,4168.077, 4322.82, 4051.026, 4153.205, 4143.333
1722050695.7299,2024-07-26 20:24:55.729,109,false,0.0,4152.18, 4316.41, 4045.256, 4136.923, 4135.641
1722050695.7377,2024-07-26 20:24:55.737,110,false,0.0,4158.974, 4324.231, 4050.128, 4144.872, 4139.231
1722050695.7455,2024-07-26 20:24:55.745,111,false,0.0,4164.359, 4331.282, 4053.461, 4154.615, 4132.692
1722050695.7534,2024-07-26 20:24:55.753,112,false,0.0,4157.308, 4340.641, 4064.359, 4149.872, 4128.846
1722050695.7612,2024-07-26 20:24:55.761,113,false,0.0,4152.692, 4338.205, 4070.897, 4147.436, 4136.923
1722050695.769,2024-07-26 20:24:55.769,114,false,0.0,4149.487, 4313.718, 4053.333, 4148.59, 4140.385
1722050695.7768,2024-07-26 20:24:55.776,115,false,0.0,4149.231, 4300.769, 4035.513, 4148.59, 4142.436
1722050695.7846,2024-07-26 20:24:55.784,116,false,0.0,4154.615, 4312.82, 4041.282, 4156.795, 4150.0
1722050695.7924,2024-07-26 20:24:55.792,117,false,0.0,4151.282, 4317.692, 4054.103, 4167.949, 4154.615
1722050695.8002,2024-07-26 20:24:55.800,118,false,0.0,4140.641, 4304.231, 4056.282, 4168.461, 4156.154
1722050695.808,2024-07-26 20:24:55.808,119,false,0.0,4136.154, 4294.744, 4051.154, 4163.974, 4151.282
1722050695.8159,2024-07-26 20:24:55.815,120,false,0.0,4132.692, 4301.282, 4047.179, 4161.923, 4137.436
1722050695.8237,2024-07-26 20:24:55.823,121,false,0.0,4127.692, 4310.0, 4042.821, 4159.231, 4132.82
1722050695.8315,2024-07-26 20:24:55.831,122,false,0.0,4119.487, 4306.026, 4031.539, 4152.949, 4132.82
1722050695.8393,2024-07-26 20:24:55.839,123,false,0.0,4100.128, 4297.949, 4025.0, 4148.461, 4118.974
1722050695.8471,2024-07-26 20:24:55.847,124,false,0.0,4092.821, 4296.41, 4041.667, 4156.154, 4113.59
1722050695.8549,2024-07-26 20:24:55.854,125,false,0.0,4114.487, 4299.487, 4065.0, 4168.718, 4126.795
1722050695.8627,2024-07-26 20:24:55.862,126,false,0.0,4128.333, 4312.436, 4071.026, 4165.769, 4129.744
1722050695.8705,2024-07-26 20:24:55.870,127,false,0.0,4119.744, 4326.282, 4069.872, 4156.154, 4130.641
1722050695.8784,2024-07-26 20:24:55.878,0,false,0.0,4115.513, 4315.0, 4068.333, 4157.692, 4142.949
1722050695.8862,2024-07-26 20:24:55.886,1,false,0.0,4113.846, 4298.333, 4060.769, 4159.359, 4140.256
1722050695.894,2024-07-26 20:24:55.894,2,false,0.0,4109.231, 4307.051, 4063.718, 4158.59, 4133.974
1722050695.9018,2024-07-26 20:24:55.901,3,false,0.0,4112.564, 4310.513, 4077.179, 4166.41, 4149.231
1722050695.9096,2024-07-26 20:24:55.909,4,false,0.0,4109.359, 4294.615, 4072.436, 4168.974, 4153.205
1722050695.9174,2024-07-26 20:24:55.917,5,false,0.0,4099.744, 4297.949, 4058.461, 4161.282, 4137.949
1722050695.9252,2024-07-26 20:24:55.925,6,false,0.0,4102.692, 4312.051, 4059.744, 4159.487, 4136.026
1722050695.933,2024-07-26 20:24:55.933,7,false,0.0,4098.077, 4306.667, 4062.051, 4156.41, 4135.0
1722050695.9409,2024-07-26 20:24:55.940,8,false,0.0,4083.205, 4305.256, 4057.949, 4147.692, 4129.744
1722050695.9487,2024-07-26 20:24:55.948,9,false,0.0,4087.436, 4309.103, 4058.718, 4149.872, 4139.872
1722050695.9565,2024-07-26 20:24:55.956,10,false,0.0,4095.641, 4290.385, 4057.564, 4157.051, 4141.795
1722050695.9643,2024-07-26 20:24:55.964,11,false,0.0,4094.744, 4279.872, 4058.59, 4157.949, 4131.154
1722050695.9721,2024-07-26 20:24:55.972,12,false,0.0,4103.59, 4297.949, 4071.154, 4160.769, 4140.385
1722050695.9799,2024-07-26 20:24:55.979,13,false,0.0,4111.795, 4300.641, 4077.436, 4164.103, 4153.077
1722050695.9877,2024-07-26 20:24:55.987,14,false,0.0,4117.18, 4292.051, 4078.333, 4168.205, 4152.18
1722050695.9955,2024-07-26 20:24:55.995,15,false,0.0,4134.487, 4307.051, 4088.974, 4176.795, 4156.667
1722050696.0034,2024-07-26 20:24:56.003,16,false,0.0,4130.128, 4309.487, 4084.487, 4165.0, 4149.359
1722050696.0112,2024-07-26 20:24:56.011,17,false,0.0,4097.692, 4281.026, 4053.205, 4132.82, 4123.077
1722050696.019,2024-07-26 20:24:56.019,18,false,0.0,4087.564, 4273.205, 4034.744, 4123.077, 4112.18
1722050696.0268,2024-07-26 20:24:56.026,19,false,0.0,4091.539, 4289.615, 4041.923, 4136.154, 4111.282
1722050696.0346,2024-07-26 20:24:56.034,20,false,0.0,4080.0, 4291.282, 4049.487, 4143.846, 4104.359
1722050696.0424,2024-07-26 20:24:56.042,21,false,0.0,4077.436, 4288.333, 4051.282, 4151.795, 4106.026
1722050696.0502,2024-07-26 20:24:56.050,22,false,0.0,4081.795, 4294.487, 4049.872, 4154.487, 4099.872
1722050696.058,2024-07-26 20:24:56.058,23,false,0.0,4068.333, 4296.667, 4044.615, 4137.82, 4074.359
1722050696.0659,2024-07-26 20:24:56.065,24,false,0.0,4061.026, 4298.59, 4046.667, 4128.59, 4067.436
1722050696.0737,2024-07-26 20:24:56.073,25,false,0.0,4072.949, 4303.333, 4055.769, 4136.667, 4079.872
1722050696.0815,2024-07-26 20:24:56.081,26,false,0.0,4080.769, 4306.41, 4060.128, 4134.359, 4080.0
1722050696.0893,2024-07-26 20:24:56.089,27,false,0.0,4086.41, 4316.539, 4065.385, 4132.692, 4081.154
1722050696.0971,2024-07-26 20:24:56.097,28,false,0.0,4100.769, 4320.256, 4071.41, 4151.282, 4098.718
1722050696.1049,2024-07-26 20:24:56.104,29,false,0.0,4113.333, 4306.282, 4062.564, 4164.103, 4110.128
1722050696.1127,2024-07-26 20:24:56.112,30,false,0.0,4117.564, 4304.615, 4046.923, 4154.744, 4104.744
1722050696.1205,2024-07-26 20:24:56.120,31,false,0.0,4108.974, 4313.077, 4041.026, 4137.436, 4092.949
1722050696.1284,2024-07-26 20:24:56.128,32,false,0.0,4091.923, 4299.872, 4035.897, 4122.564, 4080.513
1722050696.1362,2024-07-26 20:24:56.136,33,false,0.0,4089.615, 4291.154, 4029.359, 4119.744, 4073.205
1722050696.144,2024-07-26 20:24:56.144,34,false,0.0,4099.103, 4308.205, 4031.923, 4124.872, 4072.692
1722050696.1518,2024-07-26 20:24:56.151,35,false,0.0,4094.487, 4314.231, 4037.051, 4122.564, 4072.564
1722050696.1596,2024-07-26 20:24:56.159,36,false,0.0,4085.385, 4301.667, 4036.539, 4124.359, 4070.769
1722050696.1674,2024-07-26 20:24:56.167,37,false,0.0,4086.026, 4291.154, 4032.436, 4136.41, 4064.872
1722050696.1752,2024-07-26 20:24:56.175,38,false,0.0,4084.103, 4282.564, 4029.231, 4137.18, 4055.256
1722050696.183,2024-07-26 20:24:56.183,39,false,0.0,4085.385, 4284.872, 4038.461, 4133.205, 4056.282
1722050696.1909,2024-07-26 20:24:56.190,40,false,0.0,4097.82, 4297.18, 4054.487, 4141.923, 4069.103
1722050696.1987,2024-07-26 20:24:56.198,41,false,0.0,4100.128, 4294.744, 4052.179, 4146.795, 4069.487
1722050696.2065,2024-07-26 20:24:56.206,42,false,0.0,4095.385, 4291.154, 4039.103, 4139.359, 4056.282
1722050696.2143,2024-07-26 20:24:56.214,43,false,0.0,4100.385, 4302.82, 4035.256, 4132.308, 4051.539
1722050696.2221,2024-07-26 20:24:56.222,44,false,0.0,4097.051, 4300.0, 4030.385, 4129.872, 4051.539
1722050696.2299,2024-07-26 20:24:56.229,45,false,0.0,4090.385, 4284.615, 4025.897, 4139.231, 4048.59
1722050696.2377,2024-07-26 20:24:56.237,46,false,0.0,4110.641, 4291.154, 4039.359, 4157.18, 4058.461
1722050696.2455,2024-07-26 20:24:56.245,47,false,0.0,4132.692, 4306.795, 4053.846, 4162.949, 4076.539
1722050696.2534,2024-07-26 20:24:56.253,48,false,0.0,4125.769, 4307.82, 4049.615, 4159.872, 4078.205
1722050696.2612,2024-07-26 20:24:56.261,49,false,0.0,4114.359, 4302.82, 4039.103, 4159.231, 4065.0
1722050696.269,2024-07-26 20:24:56.269,50,false,0.0,4112.051, 4298.59, 4031.539, 4149.487, 4053.461
1722050696.2768,2024-07-26 20:24:56.276,51,false,0.0,4109.744, 4296.667, 4028.974, 4135.128, 4054.103
1722050696.2846,2024-07-26 20:24:56.284,52,false,0.0,4115.128, 4300.256, 4036.539, 4136.282, 4065.897
1722050696.2924,2024-07-26 20:24:56.292,53,false,0.0,4121.282, 4300.641, 4045.128, 4146.539, 4069.872
1722050696.3002,2024-07-26 20:24:56.300,54,false,0.0,4116.282, 4299.744, 4049.103, 4150.897, 4062.179
1722050696.308,2024-07-26 20:24:56.308,55,false,0.0,4115.0, 4308.718, 4053.846, 4148.077, 4061.667
1722050696.3159,2024-07-26 20:24:56.315,56,false,0.0,4119.615, 4312.18, 4049.231, 4138.974, 4060.769
1722050696.3237,2024-07-26 20:24:56.323,57,false,0.0,4118.846, 4299.103, 4033.59, 4131.667, 4047.051
1722050696.3315,2024-07-26 20:24:56.331,58,false,0.0,4125.128, 4297.308, 4034.487, 4136.282, 4042.949
1722050696.3393,2024-07-26 20:24:56.339,59,false,0.0,4135.513, 4313.974, 4048.333, 4141.923, 4048.974
1722050696.3471,2024-07-26 20:24:56.347,60,false,0.0,4126.539, 4311.795, 4038.461, 4132.564, 4035.128
1722050696.3549,2024-07-26 20:24:56.354,61,false,0.0,4112.692, 4291.41, 4016.154, 4119.231, 4014.359
1722050696.3627,2024-07-26 20:24:56.362,62,false,0.0,4120.128, 4296.667, 4021.539, 4123.077, 4016.154
1722050696.3705,2024-07-26 20:24:56.370,63,false,0.0,4135.513, 4318.333, 4039.103, 4133.59, 4027.692
1722050696.3784,2024-07-26 20:24:56.378,64,false,0.0,4138.333, 4314.615, 4035.0, 4129.615, 4031.282
1722050696.3862,2024-07-26 20:24:56.386,65,false,0.0,4133.846, 4301.667, 4025.0, 4124.487, 4032.051
1722050696.394,2024-07-26 20:24:56.394,66,false,0.0,4137.051, 4307.308, 4031.41, 4132.949, 4032.436
1722050696.4018,2024-07-26 20:24:56.401,67,false,0.0,4142.82, 4311.667, 4041.282, 4133.461, 4030.385
1722050696.4096,2024-07-26 20:24:56.409,68,false,0.0,4131.923, 4304.103, 4041.282, 4121.667, 4025.769
1722050696.4174,2024-07-26 20:24:56.417,69,false,0.0,4115.897, 4297.308, 4038.461, 4123.077, 4019.231
1722050696.4252,2024-07-26 20:24:56.425,70,false,0.0,4120.513, 4293.974, 4041.795, 4134.359, 4017.179
1722050696.433,2024-07-26 20:24:56.433,71,false,0.0,4131.923, 4300.769, 4053.59, 4138.205, 4024.359
1722050696.4409,2024-07-26 20:24:56.440,72,false,0.0,4130.256, 4316.026, 4065.0, 4143.846, 4035.256
1722050696.4487,2024-07-26 20:24:56.448,73,false,0.0,4124.487, 4313.461, 4059.103, 4148.59, 4037.051
1722050696.4565,2024-07-26 20:24:56.456,74,false,0.0,4118.718, 4296.154, 4040.385, 4141.795, 4027.821
1722050696.4643,2024-07-26 20:24:56.464,75,false,0.0,4120.641, 4294.359, 4034.103, 4142.308, 4028.974
1722050696.4721,2024-07-26 20:24:56.472,76,false,0.0,4135.128, 4300.256, 4038.846, 4149.872, 4044.359
1722050696.4799,2024-07-26 20:24:56.479,77,false,0.0,4132.18, 4293.974, 4030.385, 4137.949, 4046.539
1722050696.4877,2024-07-26 20:24:56.487,78,false,0.0,4112.564, 4286.282, 4020.769, 4125.897, 4039.744
1722050696.4955,2024-07-26 20:24:56.495,79,false,0.0,4114.872, 4289.487, 4029.359, 4135.128, 4044.487
1722050696.5034,2024-07-26 20:24:56.503,80,false,0.0,4122.18, 4297.692, 4034.359, 4134.103, 4044.615
1722050696.5112,2024-07-26 20:24:56.511,81,false,0.0,4117.692, 4301.539, 4034.103, 4123.718, 4044.103
1722050696.519,2024-07-26 20:24:56.519,82,false,0.0,4135.128, 4302.949, 4054.744, 4138.718, 4070.769
1722050696.5268,2024-07-26 20:24:56.526,83,false,0.0,4157.564, 4311.41, 4072.821, 4155.513, 4093.846
1722050696.5346,2024-07-26 20:24:56.534,84,false,0.0,4151.026, 4318.59, 4061.795, 4149.231, 4087.308
1722050696.5424,2024-07-26 20:24:56.542,85,false,0.0,4151.026, 4311.539, 4053.59, 4146.282, 4084.615
1722050696.5502,2024-07-26 20:24:56.550,86,false,0.0,4166.795, 4308.077, 4061.154, 4148.333, 4091.795
1722050696.558,2024-07-26 20:24:56.558,87,false,0.0,4168.077, 4315.128, 4064.487, 4139.872, 4097.82
1722050696.5659,2024-07-26 20:24:56.565,88,false,0.0,4169.744, 4307.949, 4068.461, 4140.128, 4116.41
1722050696.5737,2024-07-26 20:24:56.573,89,false,0.0,4178.333, 4296.795, 4072.051, 4149.103, 4126.539
1722050696.5815,2024-07-26 20:24:56.581,90,false,0.0,4174.615, 4310.128, 4064.615, 4145.513, 4110.385
1722050696.5893,2024-07-26 20:24:56.589,91,false,0.0,4170.385, 4324.487, 4061.026, 4138.333, 4102.949
1722050696.5971,2024-07-26 20:24:56.597,92,false,0.0,4165.769, 4313.333, 4054.872, 4130.769, 4101.667
1722050696.6049,2024-07-26 20:24:56.604,93,false,0.0,4147.82, 4301.667, 4028.718, 4112.564, 4081.41
1722050696.6127,2024-07-26 20:24:56.612,94,false,0.0,4143.461, 4305.641, 4014.487, 4106.282, 4072.949
1722050696.6205,2024-07-26 20:24:56.620,95,false,0.0,4158.205, 4308.974, 4026.282, 4123.718, 4090.128
1722050696.6284,2024-07-26 20:24:56.628,96,false,0.0,4164.872, 4309.103, 4028.077, 4136.026, 4105.641
1722050696.6362,2024-07-26 20:24:56.636,97,false,0.0,4167.308, 4313.59, 4017.436, 4133.718, 4120.256
1722050696.644,2024-07-26 20:24:56.644,98,false,0.0,4165.641, 4309.872, 4018.718, 4130.0, 4132.051
1722050696.6518,2024-07-26 20:24:56.651,99,false,0.0,4152.051, 4293.718, 4029.487, 4132.564, 4134.744
1722050696.6596,2024-07-26 20:24:56.659,100,false,0.0,4157.82, 4289.231, 4045.256, 4148.59, 4154.359
1722050696.6674,2024-07-26 20:24:56.667,101,false,0.0,4180.897, 4303.205, 4055.0, 4163.461, 4175.385
1722050696.6752,2024-07-26 20:24:56.675,102,false,0.0,4177.692, 4309.359, 4043.974, 4151.923, 4159.103
1722050696.683,2024-07-26 20:24:56.683,103,false,0.0,4164.872, 4301.154, 4034.231, 4135.385, 4146.539
1722050696.6909,2024-07-26 20:24:56.690,104,false,0.0,4171.667, 4298.718, 4041.282, 4137.692, 4168.333
1722050696.6987,2024-07-26 20:24:56.698,105,false,0.0,4169.872, 4303.461, 4038.461, 4137.692, 4179.359
1722050696.7065,2024-07-26 20:24:56.706,106,false,0.0,4156.282, 4305.128, 4025.256, 4130.0, 4173.718
1722050696.7143,2024-07-26 20:24:56.714,107,false,0.0,4158.333, 4310.0, 4026.539, 4130.385, 4182.051
1722050696.7221,2024-07-26 20:24:56.722,108,false,0.0,4165.897, 4319.231, 4037.051, 4134.359, 4194.872
1722050696.7299,2024-07-26 20:24:56.729,109,false,0.0,4168.846, 4317.692, 4044.615, 4143.461, 4205.256
1722050696.7377,2024-07-26 20:24:56.737,110,false,0.0,4173.846, 4305.256, 4051.026, 4156.282, 4216.923
1722050696.7455,2024-07-26 20:24:56.745,111,false,0.0,4172.692, 4301.667, 4055.0, 4153.077, 4218.077
1722050696.7534,2024-07-26 20:24:56.753,112,false,0.0,4171.539, 4310.641, 4058.077, 4144.615, 4218.333
1722050696.7612,2024-07-26 20:24:56.761,113,false,0.0,4180.513, 4314.487, 4061.923, 4149.359, 4227.949
1722050696.769,2024-07-26 20:24:56.769,114,false,0.0,4180.128, 4310.0, 4064.359, 4151.41, 4230.385
1722050696.7768,2024-07-26 20:24:56.776,115,false,0.0,4173.846, 4312.82, 4068.077, 4151.539, 4228.974
1722050696.7846,2024-07-26 20:24:56.784,116,false,0.0,4182.051, 4319.615, 4068.974, 4162.564, 4232.051
1722050696.7924,2024-07-26 20:24:56.792,117,false,0.0,4184.359, 4315.0, 4062.692, 4163.718, 4225.0
1722050696.8002,2024-07-26 20:24:56.800,118,false,0.0,4167.18, 4307.436, 4054.744, 4145.256, 4209.231
1722050696.808,2024-07-26 20:24:56.808,119,false,0.0,4155.385, 4308.077, 4044.872, 4131.282, 4196.026
1722050696.8159,2024-07-26 20:24:56.815,120,false,0.0,4159.744, 4307.692, 4041.026, 4136.795, 4188.205
1722050696.8237,2024-07-26 20:24:56.823,121,false,0.0,4173.974, 4308.974, 4055.256, 4153.333, 4197.692
1722050696.8315,2024-07-26 20:24:56.831,122,false,0.0,4188.461, 4321.41, 4065.897, 4162.051, 4215.0
1722050696.8393,2024-07-26 20:24:56.839,123,false,0.0,4186.41, 4326.154, 4058.205, 4158.846, 4212.18
1722050696.8471,2024-07-26 20:24:56.847,124,false,0.0,4172.18, 4310.513, 4055.0, 4158.333, 4199.231
1722050696.8549,2024-07-26 20:24:56.854,125,false,0.0,4166.539, 4297.82, 4056.667, 4160.897, 4198.205
1722050696.8627,2024-07-26 20:24:56.862,126,false,0.0,4171.154, 4301.923, 4051.539, 4160.385, 4201.026
1722050696.8705,2024-07-26 20:24:56.870,127,false,0.0,4176.923, 4307.564, 4055.128, 4162.949, 4200.385
1722050696.8784,2024-07-26 20:24:56.878,0,false,0.0,4177.308, 4309.103, 4066.795, 4161.923, 4197.564
1722050696.8862,2024-07-26 20:24:56.886,1,false,0.0,4173.205, 4316.667, 4069.487, 4154.487, 4194.359
1722050696.894,2024-07-26 20:24:56.894,2,false,0.0,4173.333, 4325.128, 4071.282, 4157.564, 4191.795
1722050696.9018,2024-07-26 20:24:56.901,3,false,0.0,4174.487, 4320.385, 4073.205, 4167.564, 4182.18
1722050696.9096,2024-07-26 20:24:56.909,4,false,0.0,4173.718, 4309.872, 4067.949, 4170.0, 4172.82
1722050696.9174,2024-07-26 20:24:56.917,5,false,0.0,4178.974, 4309.744, 4064.359, 4168.461, 4178.846
1722050696.9252,2024-07-26 20:24:56.925,6,false,0.0,4181.795, 4313.333, 4063.077, 4164.103, 4182.692
1722050696.933,2024-07-26 20:24:56.933,7,false,0.0,4177.436, 4311.795, 4058.846, 4159.872, 4174.359
1722050696.9409,2024-07-26 20:24:56.940,8,false,0.0,4181.41, 4310.897, 4059.231, 4161.923, 4172.308
1722050696.9487,2024-07-26 20:24:56.948,9,false,0.0,4183.333, 4308.974, 4062.692, 4159.615, 4168.461
1722050696.9565,2024-07-26 20:24:56.956,10,false,0.0,4176.539, 4307.564, 4067.051, 4155.385, 4160.513
1722050696.9643,2024-07-26 20:24:56.964,11,false,0.0,4182.308, 4312.692, 4077.692, 4161.539, 4170.897
1722050696.9721,2024-07-26 20:24:56.972,12,false,0.0,4190.256, 4310.769, 4083.205, 4165.513, 4180.385
1722050696.9799,2024-07-26 20:24:56.979,13,false,0.0,4184.872, 4301.282, 4079.359, 4166.923, 4169.487
1722050696.9877,2024-07-26 20:24:56.987,14,false,0.0,4185.769, 4301.41, 4074.487, 4173.974, 4160.0
1722050696.9955,2024-07-26 20:24:56.995,15,false,0.0,4187.051, 4297.82, 4066.026, 4166.667, 4150.641
1722050697.0034,2024-07-26 20:24:57.003,16,false,0.0,4179.231, 4290.897, 4064.487, 4156.026, 4141.026
1722050697.0112,2024-07-26 20:24:57.011,17,false,0.0,4181.795, 4307.82, 4076.026, 4169.231, 4148.718
1722050697.019,2024-07-26 20:24:57.019,18,false,0.0,4181.667, 4321.539, 4070.385, 4174.359, 4142.949
1722050697.0268,2024-07-26 20:24:57.026,19,false,0.0,4168.974, 4307.18, 4051.923, 4160.513, 4116.026
1722050697.0346,2024-07-26 20:24:57.034,20,false,0.0,4173.077, 4306.539, 4059.872, 4167.564, 4117.949
1722050697.0424,2024-07-26 20:24:57.042,21,false,0.0,4180.385, 4318.974, 4071.282, 4177.436, 4133.718
1722050697.0502,2024-07-26 20:24:57.050,22,false,0.0,4172.564, 4308.333, 4057.051, 4166.41, 4126.667
1722050697.058,2024-07-26 20:24:57.058,23,false,0.0,4177.82, 4305.0, 4054.103, 4170.769, 4125.256
1722050697.0659,2024-07-26 20:24:57.065,24,false,0.0,4183.718, 4323.974, 4071.539, 4185.641, 4128.461
1722050697.0737,2024-07-26 20:24:57.073,25,false,0.0,4171.154, 4324.487, 4073.718, 4181.026, 4117.82
1722050697.0815,2024-07-26 20:24:57.081,26,false,0.0,4178.205, 4315.513, 4066.026, 4181.923, 4125.513
1722050697.0893,2024-07-26 20:24:57.089,27,false,0.0,4196.539, 4323.974, 4063.077, 4190.897, 4142.051
1722050697.0971,2024-07-26 20:24:57.097,28,false,0.0,4187.436, 4330.641, 4054.615, 4180.769, 4131.026
1722050697.1049,2024-07-26 20:24:57.104,29,false,0.0,4176.923, 4326.923, 4052.051, 4172.308, 4121.923
1722050697.1127,2024-07-26 20:24:57.112,30,false,0.0,4178.077, 4320.385, 4063.205, 4176.41, 4130.128
1722050697.1205,2024-07-26 20:24:57.120,31,false,0.0,4166.795, 4308.461, 4061.282, 4169.744, 4126.667
1722050697.1284,2024-07-26 20:24:57.128,32,false,0.0,4159.359, 4305.385, 4050.128, 4165.256, 4123.333
1722050697.1362,2024-07-26 20:24:57.136,33,false,0.0,4170.385, 4317.564, 4059.487, 4176.667, 4137.949
1722050697.144,2024-07-26 20:24:57.144,34,false,0.0,4176.923, 4324.615, 4071.41, 4176.539, 4145.641
1722050697.1518,2024-07-26 20:24:57.151,35,false,0.0,4170.513, 4319.103, 4057.949, 4157.436, 4136.667
1722050697.1596,2024-07-26 20:24:57.159,36,false,0.0,4164.615, 4313.077, 4045.513, 4147.949, 4137.18
1722050697.1674,2024-07-26 20:24:57.167,37,false,0.0,4170.0, 4312.949, 4052.564, 4157.949, 4156.41
1722050697.1752,2024-07-26 20:24:57.175,38,false,0.0,4175.256, 4314.744, 4048.077, 4158.974, 4164.103
1722050697.183,2024-07-26 20:24:57.183,39,false,0.0,4161.026, 4310.0, 4027.564, 4138.461, 4146.154
1722050697.1909,2024-07-26 20:24:57.190,40,false,0.0,4151.795, 4305.641, 4027.821, 4130.769, 4142.692
1722050697.1987,2024-07-26 20:24:57.198,41,false,0.0,4171.41, 4317.051, 4045.256, 4148.59, 4172.308
1722050697.2065,2024-07-26 20:24:57.206,42,false,0.0,4186.282, 4331.282, 4048.718, 4158.59, 4200.641
1722050697.2143,2024-07-26 20:24:57.214,43,false,0.0,4184.359, 4327.949, 4046.026, 4160.256, 4215.897
1722050697.2221,2024-07-26 20:24:57.222,44,false,0.0,4193.461, 4318.718, 4052.051, 4171.539, 4231.026
1722050697.2299,2024-07-26 20:24:57.229,45,false,0.0,4207.949, 4328.59, 4058.974, 4175.513, 4244.487
1722050697.2377,2024-07-26 20:24:57.237,46,false,0.0,4212.692, 4351.667, 4065.897, 4167.949, 4259.615
1722050697.2455,2024-07-26 20:24:57.245,47,false,0.0,4209.359, 4353.461, 4070.897, 4162.692, 4273.333
1722050697.2534,2024-07-26 20:24:57.253,48,false,0.0,4198.333, 4334.359, 4067.308, 4159.615, 4277.564
1722050697.2612,2024-07-26 20:24:57.261,49,false,0.0,4200.128, 4331.41, 4067.436, 4165.897, 4288.59
1722050697.269,2024-07-26 20:24:57.269,50,false,0.0,4216.795, 4335.897, 4068.077, 4175.385, 4302.18
1722050697.2768,2024-07-26 20:24:57.276,51,false,0.0,4213.461, 4325.256, 4051.667, 4166.795, 4295.641
1722050697.2846,2024-07-26 20:24:57.284,52,false,0.0,4201.41, 4329.744, 4041.923, 4157.82, 4290.128
1722050697.2924,2024-07-26 20:24:57.292,53,false,0.0,4203.077, 4342.949, 4051.923, 4158.974, 4296.923
1722050697.3002,2024-07-26 20:24:57.300,54,false,0.0,4193.077, 4322.564, 4047.308, 4151.282, 4289.744
1722050697.308,2024-07-26 20:24:57.308,55,false,0.0,4184.231, 4304.744, 4036.539, 4152.949, 4280.769
1722050697.3159,2024-07-26 20:24:57.315,56,false,0.0,4200.897, 4319.231, 4048.59, 4166.667, 4287.436
1722050697.3237,2024-07-26 20:24:57.323,57,false,0.0,4200.256, 4317.436, 4053.077, 4154.872, 4285.897
1722050697.3315,2024-07-26 20:24:57.331,58,false,0.0,4180.641, 4304.615, 4039.103, 4140.513, 4277.82
1722050697.3393,2024-07-26 20:24:57.339,59,false,0.0,4189.359, 4316.667, 4039.615, 4156.667, 4282.436
1722050697.3471,2024-07-26 20:24:57.347,60,false,0.0,4208.077, 4326.026, 4048.205, 4170.128, 4290.385
1722050697.3549,2024-07-26 20:24:57.354,61,false,0.0,4213.846, 4328.846, 4055.513, 4171.795, 4302.051
1722050697.3627,2024-07-26 20:24:57.362,62,false,0.0,4221.539, 4343.205, 4072.564, 4176.282, 4315.256
1722050697.3705,2024-07-26 20:24:57.370,63,false,0.0,4216.539, 4336.026, 4075.769, 4167.308, 4307.051
1722050697.3784,2024-07-26 20:24:57.378,64,false,0.0,4198.205, 4313.333, 4061.795, 4157.308, 4292.692
1722050697.3862,2024-07-26 20:24:57.386,65,false,0.0,4196.026, 4314.615, 4065.769, 4163.333, 4295.641
1722050697.394,2024-07-26 20:24:57.394,66,false,0.0,4200.385, 4321.026, 4074.487, 4159.359, 4292.82
1722050697.4018,2024-07-26 20:24:57.401,67,false,0.0,4202.18, 4323.718, 4070.897, 4153.718, 4285.769
1722050697.4096,2024-07-26 20:24:57.409,68,false,0.0,4211.026, 4333.974, 4080.0, 4167.051, 4301.282
1722050697.4174,2024-07-26 20:24:57.417,69,false,0.0,4207.82, 4324.103, 4090.769, 4167.18, 4312.82
1722050697.4252,2024-07-26 20:24:57.425,70,false,0.0,4192.564, 4306.795, 4080.256, 4149.872, 4297.051
1722050697.433,2024-07-26 20:24:57.433,71,false,0.0,4192.18, 4321.282, 4073.974, 4150.513, 4286.154
1722050697.4409,2024-07-26 20:24:57.440,72,false,0.0,4199.103, 4335.897, 4080.897, 4160.641, 4292.051
1722050697.4487,2024-07-26 20:24:57.448,73,false,0.0,4202.308, 4331.026, 4082.949, 4160.641, 4293.718
1722050697.4565,2024-07-26 20:24:57.456,74,false,0.0,4207.051, 4335.256, 4086.41, 4160.769, 4290.641
1722050697.4643,2024-07-26 20:24:57.464,75,false,0.0,4208.974, 4337.692, 4096.41, 4165.513, 4296.282
1722050697.4721,2024-07-26 20:24:57.472,76,false,0.0,4216.154, 4329.359, 4103.718, 4174.487, 4308.461
1722050697.4799,2024-07-26 20:24:57.479,77,false,0.0,4229.872, 4332.949, 4105.128, 4181.667, 4311.026
1722050697.4877,2024-07-26 20:24:57.487,78,false,0.0,4223.077, 4335.0, 4098.333, 4173.077, 4298.59
1722050697.4955,2024-07-26 20:24:57.495,79,false,0.0,4202.051, 4326.154, 4086.41, 4162.308, 4284.359
1722050697.5034,2024-07-26 20:24:57.503,80,false,0.0,4193.846, 4327.436, 4083.077, 4165.897, 4273.461
1722050697.5112,2024-07-26 20:24:57.511,81,false,0.0,4197.692, 4331.923, 4093.333, 4172.564, 4271.154
1722050697.519,2024-07-26 20:24:57.519,82,false,0.0,4209.744, 4331.41, 4105.513, 4177.564, 4285.769
1722050697.5268,2024-07-26 20:24:57.526,83,false,0.0,4215.897, 4335.256, 4098.974, 4177.436, 4286.923
1722050697.5346,2024-07-26 20:24:57.534,84,false,0.0,4201.667, 4332.436, 4079.615, 4165.256, 4259.872
1722050697.5424,2024-07-26 20:24:57.542,85,false,0.0,4202.82, 4329.103, 4080.769, 4164.103, 4254.231
1722050697.5502,2024-07-26 20:24:57.550,86,false,0.0,4223.59, 4343.205, 4092.564, 4173.846, 4268.59
1722050697.558,2024-07-26 20:24:57.558,87,false,0.0,4217.436, 4345.385, 4083.205, 4164.103, 4257.051
1722050697.5659,2024-07-26 20:24:57.565,88,false,0.0,4213.333, 4328.59, 4080.769, 4163.333, 4257.564
1722050697.5737,2024-07-26 20:24:57.573,89,false,0.0,4244.615, 4331.667, 4096.282, 4187.564, 4286.41
1722050697.5815,2024-07-26 20:24:57.581,90,false,0.0,4246.923, 4343.59, 4084.487, 4181.667, 4275.128
1722050697.5893,2024-07-26 20:24:57.589,91,false,0.0,4217.82, 4339.103, 4063.205, 4156.026, 4244.744
1722050697.5971,2024-07-26 20:24:57.597,92,false,0.0,4222.564, 4341.154, 4078.333, 4164.744, 4257.949
1722050697.6049,2024-07-26 20:24:57.604,93,false,0.0,4231.795, 4349.615, 4095.897, 4175.385, 4267.82
1722050697.6127,2024-07-26 20:24:57.612,94,false,0.0,4226.154, 4348.077, 4095.897, 4172.436, 4251.026
1722050697.6205,2024-07-26 20:24:57.620,95,false,0.0,4257.18, 4355.897, 4106.667, 4187.18, 4254.615
1722050697.6284,2024-07-26 20:24:57.628,96,false,0.0,4288.718, 4366.539, 4105.641, 4182.436, 4256.026
1722050697.6362,2024-07-26 20:24:57.636,97,false,0.0,4275.0, 4356.026, 4081.539, 4149.103, 4235.385
1722050697.644,2024-07-26 20:24:57.644,98,false,0.0,4277.692, 4350.256, 4080.385, 4148.974, 4236.026
1722050697.6518,2024-07-26 20:24:57.651,99,false,0.0,4301.282, 4358.974, 4089.103, 4162.18, 4240.769
1722050697.6596,2024-07-26 20:24:57.659,100,false,0.0,4290.641, 4354.615, 4073.59, 4148.974, 4218.205
1722050697.6674,2024-07-26 20:24:57.667,101,false,0.0,4282.692, 4353.718, 4075.0, 4152.564, 4212.436
1722050697.6752,2024-07-26 20:24:57.675,102,false,0.0,4303.333, 4370.769, 4100.769, 4171.667, 4227.564
1722050697.683,2024-07-26 20:24:57.683,103,false,0.0,4298.846, 4372.436, 4099.359, 4162.436, 4217.18
1722050697.6909,2024-07-26 20:24:57.690,104,false,0.0,4279.744, 4361.795, 4089.487, 4156.923, 4203.59
1722050697.6987,2024-07-26 20:24:57.698,105,false,0.0,4292.308, 4368.974, 4107.436, 4180.0, 4219.359
1722050697.7065,2024-07-26 20:24:57.706,106,false,0.0,4305.385, 4374.487, 4117.436, 4190.897, 4229.872
1722050697.7143,2024-07-26 20:24:57.714,107,false,0.0,4290.769, 4363.718, 4107.564, 4180.128, 4218.205
1722050697.7221,2024-07-26 20:24:57.722,108,false,0.0,4279.872, 4359.615, 4111.282, 4175.769, 4211.154
1722050697.7299,2024-07-26 20:24:57.729,109,false,0.0,4279.231, 4360.769, 4114.487, 4175.641, 4203.205
