Time,Timestamp,Counter,Interpolated,Contact Quality,AF3,T7,Pz,T8,AF4
1722050958.5815,2024-07-26 20:29:18.581,90,false,0.0,4213.205, 4338.974, 4075.513, 4161.539, 4141.667
1722050958.5893,2024-07-26 20:29:18.589,91,false,0.0,4222.82, 4354.487, 4088.205, 4165.769, 4145.0
1722050958.5971,2024-07-26 20:29:18.597,92,false,0.0,4222.564, 4358.333, 4097.436, 4174.231, 4142.564
1722050958.6049,2024-07-26 20:29:18.604,93,false,0.0,4212.564, 4343.846, 4091.667, 4174.744, 4130.641
1722050958.6127,2024-07-26 20:29:18.612,94,false,0.0,4212.949, 4337.051, 4083.333, 4174.231, 4133.461
1722050958.6205,2024-07-26 20:29:18.620,95,false,0.0,4220.385, 4341.154, 4077.692, 4174.359, 4133.077
1722050958.6284,2024-07-26 20:29:18.628,96,false,0.0,4221.154, 4352.18, 4082.308, 4166.154, 4121.539
1722050958.6362,2024-07-26 20:29:18.636,97,false,0.0,4225.256, 4355.641, 4093.461, 4162.051, 4129.487
1722050958.644,2024-07-26 20:29:18.644,98,false,0.0,4236.41, 4346.282, 4092.051, 4167.949, 4141.026
1722050958.6518,2024-07-26 20:29:18.651,99,false,0.0,4238.718, 4350.769, 4086.795, 4168.205, 4129.744
1722050958.6596,2024-07-26 20:29:18.659,100,false,0.0,4228.974, 4352.692, 4087.692, 4166.667, 4118.077
1722050958.6674,2024-07-26 20:29:18.667,101,false,0.0,4215.769, 4328.718, 4080.897, 4172.692, 4107.18
1722050958.6752,2024-07-26 20:29:18.675,102,false,0.0,4203.718, 4323.461, 4075.385, 4172.308, 4089.231
1722050958.683,2024-07-26 20:29:18.683,103,false,0.0,4197.949, 4334.231, 4078.974, 4162.692, 4087.051
1722050958.6909,2024-07-26 20:29:18.690,104,false,0.0,4199.615, 4319.359, 4076.795, 4162.308, 4091.795
1722050958.6987,2024-07-26 20:29:18.698,105,false,0.0,4206.539, 4325.256, 4080.513, 4170.897, 4086.667
1722050958.7065,2024-07-26 20:29:18.706,106,false,0.0,4215.256, 4363.59, 4096.026, 4170.641, 4095.769
1722050958.7143,2024-07-26 20:29:18.714,107,false,0.0,4218.333, 4356.41, 4090.897, 4162.308, 4107.18
1722050958.7221,2024-07-26 20:29:18.722,108,false,0.0,4216.539, 4323.59, 4073.974, 4156.923, 4093.333
1722050958.7299,2024-07-26 20:29:18.729,109,false,0.0,4217.436, 4333.718, 4077.564, 4153.718, 4088.718
1722050958.7377,2024-07-26 20:29:18.737,110,false,0.0,4212.308, 4346.795, 4080.385, 4150.641, 4101.795
1722050958.7455,2024-07-26 20:29:18.745,111,false,0.0,4199.103, 4325.128, 4070.128, 4152.82, 4091.539
1722050958.7534,2024-07-26 20:29:18.753,112,false,0.0,4197.692, 4312.436, 4076.41, 4159.103, 4078.333
1722050958.7612,2024-07-26 20:29:18.761,113,false,0.0,4205.0, 4324.744, 4093.846, 4161.41, 4094.487
1722050958.769,2024-07-26 20:29:18.769,114,false,0.0,4201.282, 4330.256, 4091.41, 4157.308, 4100.256
1722050958.7768,2024-07-26 20:29:18.776,115,false,0.0,4194.872, 4326.667, 4078.974, 4149.487, 4077.051
1722050958.7846,2024-07-26 20:29:18.784,116,false,0.0,4196.154, 4340.0, 4081.795, 4145.897, 4066.923
1722050958.7924,2024-07-26 20:29:18.792,117,false,0.0,4200.128, 4362.051, 4093.974, 4151.026, 4080.128
1722050958.8002,2024-07-26 20:29:18.800,118,false,0.0,4208.205, 4356.026, 4098.077, 4156.026, 4095.0
1722050958.808,2024-07-26 20:29:18.808,119,false,0.0,4216.539, 4334.487, 4094.744, 4158.077, 4110.256
1722050958.8159,2024-07-26 20:29:18.815,120,false,0.0,4212.564, 4334.103, 4095.769, 4169.231, 4123.077
1722050958.8237,2024-07-26 20:29:18.823,121,false,0.0,4206.795, 4337.051, 4101.923, 4184.103, 4123.59
1722050958.8315,2024-07-26 20:29:18.831,122,false,0.0,4213.333, 4326.282, 4108.461, 4189.615, 4128.333
1722050958.8393,2024-07-26 20:29:18.839,123,false,0.0,4217.949, 4319.744, 4113.59, 4191.923, 4147.692
1722050958.8471,2024-07-26 20:29:18.847,124,false,0.0,4204.103, 4310.641, 4109.615, 4190.641, 4154.615
1722050958.8549,2024-07-26 20:29:18.854,125,false,0.0,4183.718, 4299.487, 4094.487, 4177.051, 4140.897
1722050958.8627,2024-07-26 20:29:18.862,126,false,0.0,4175.897, 4311.795, 4082.179, 4167.82, 4134.744
1722050958.8705,2024-07-26 20:29:18.870,127,false,0.0,4180.128, 4326.026, 4080.513, 4174.872, 4144.615
1722050958.8784,2024-07-26 20:29:18.878,0,false,0.0,4188.846, 4321.923, 4089.615, 4183.077, 4161.539
1722050958.8862,2024-07-26 20:29:18.886,1,false,0.0,4201.026, 4326.795, 4110.128, 4187.82, 4185.128
1722050958.894,2024-07-26 20:29:18.894,2,false,0.0,4208.59, 4332.82, 4124.872, 4190.256, 4202.051
1722050958.9018,2024-07-26 20:29:18.901,3,false,0.0,4203.974, 4318.974, 4118.718, 4179.872, 4205.513
1722050958.9096,2024-07-26 20:29:18.909,4,false,0.0,4195.513, 4310.256, 4109.872, 4169.231, 4216.539
1722050958.9174,2024-07-26 20:29:18.917,5,false,0.0,4193.718, 4314.615, 4115.0, 4182.051, 4238.205
1722050958.9252,2024-07-26 20:29:18.925,6,false,0.0,4200.385, 4324.872, 4126.539, 4202.436, 4255.897
1722050958.933,2024-07-26 20:29:18.933,7,false,0.0,4206.923, 4340.256, 4133.59, 4203.846, 4270.513
1722050958.9409,2024-07-26 20:29:18.940,8,false,0.0,4198.974, 4331.923, 4127.564, 4197.82, 4278.974
1722050958.9487,2024-07-26 20:29:18.948,9,false,0.0,4191.154, 4312.436, 4118.461, 4205.641, 4282.308
1722050958.9565,2024-07-26 20:29:18.956,10,false,0.0,4205.256, 4332.82, 4126.154, 4216.539, 4295.385
1722050958.9643,2024-07-26 20:29:18.964,11,false,0.0,4210.897, 4351.282, 4133.59, 4211.41, 4304.615
1722050958.9721,2024-07-26 20:29:18.972,12,false,0.0,4188.974, 4327.949, 4118.59, 4199.103, 4293.461
1722050958.9799,2024-07-26 20:29:18.979,13,false,0.0,4180.256, 4322.564, 4109.103, 4195.641, 4286.41
1722050958.9877,2024-07-26 20:29:18.987,14,false,0.0,4189.487, 4338.59, 4118.846, 4196.41, 4290.897
1722050958.9955,2024-07-26 20:29:18.995,15,false,0.0,4183.205, 4331.282, 4116.41, 4196.539, 4287.949
1722050959.0034,2024-07-26 20:29:19.003,16,false,0.0,4180.128, 4335.513, 4104.744, 4199.359, 4287.564
1722050959.0112,2024-07-26 20:29:19.011,17,false,0.0,4193.974, 4355.385, 4107.051, 4195.256, 4295.128
1722050959.019,2024-07-26 20:29:19.019,18,false,0.0,4190.513, 4340.897, 4107.692, 4180.769, 4291.026
1722050959.0268,2024-07-26 20:29:19.026,19,false,0.0,4177.051, 4326.026, 4100.385, 4174.231, 4285.128
1722050959.0346,2024-07-26 20:29:19.034,20,false,0.0,4188.077, 4340.769, 4106.154, 4183.333, 4298.205
1722050959.0424,2024-07-26 20:29:19.042,21,false,0.0,4205.0, 4337.692, 4115.385, 4193.333, 4314.744
1722050959.0502,2024-07-26 20:29:19.050,22,false,0.0,4201.667, 4320.897, 4109.872, 4193.846, 4313.461
1722050959.058,2024-07-26 20:29:19.058,23,false,0.0,4191.282, 4324.615, 4105.513, 4189.744, 4302.308
1722050959.0659,2024-07-26 20:29:19.065,24,false,0.0,4188.718, 4330.0, 4109.487, 4190.128, 4298.718
1722050959.0737,2024-07-26 20:29:19.073,25,false,0.0,4194.487, 4335.128, 4108.333, 4192.692, 4303.205
1722050959.0815,2024-07-26 20:29:19.081,26,false,0.0,4198.59, 4347.564, 4103.333, 4187.436, 4302.692
1722050959.0893,2024-07-26 20:29:19.089,27,false,0.0,4190.385, 4340.513, 4098.846, 4181.923, 4298.333
1722050959.0971,2024-07-26 20:29:19.097,28,false,0.0,4181.539, 4326.923, 4091.539, 4187.692, 4297.692
1722050959.1049,2024-07-26 20:29:19.104,29,false,0.0,4184.744, 4336.026, 4088.718, 4189.872, 4291.282
1722050959.1127,2024-07-26 20:29:19.112,30,false,0.0,4187.564, 4334.615, 4091.154, 4177.436, 4280.385
1722050959.1205,2024-07-26 20:29:19.120,31,false,0.0,4183.718, 4310.513, 4084.744, 4168.205, 4282.949
1722050959.1284,2024-07-26 20:29:19.128,32,false,0.0,4183.333, 4301.923, 4074.359, 4170.897, 4286.282
1722050959.1362,2024-07-26 20:29:19.136,33,false,0.0,4182.436, 4308.205, 4073.333, 4173.974, 4273.077
1722050959.144,2024-07-26 20:29:19.144,34,false,0.0,4177.051, 4310.0, 4071.923, 4173.461, 4262.051
1722050959.1518,2024-07-26 20:29:19.151,35,false,0.0,4176.154, 4314.744, 4066.026, 4169.487, 4262.692
1722050959.1596,2024-07-26 20:29:19.159,36,false,0.0,4177.308, 4318.59, 4071.282, 4168.205, 4262.18
1722050959.1674,2024-07-26 20:29:19.167,37,false,0.0,4174.103, 4316.026, 4084.487, 4177.82, 4261.154
1722050959.1752,2024-07-26 20:29:19.175,38,false,0.0,4173.846, 4322.564, 4088.846, 4182.692, 4258.974
1722050959.183,2024-07-26 20:29:19.183,39,false,0.0,4178.974, 4338.333, 4089.103, 4173.59, 4250.385
1722050959.1909,2024-07-26 20:29:19.190,40,false,0.0,4179.103, 4344.615, 4089.487, 4167.82, 4237.051
1722050959.1987,2024-07-26 20:29:19.198,41,false,0.0,4163.718, 4337.564, 4075.641, 4155.385, 4207.18
1722050959.2065,2024-07-26 20:29:19.206,42,false,0.0,4140.0, 4331.667, 4055.385, 4127.051, 4164.487
1722050959.2143,2024-07-26 20:29:19.214,43,false,0.0,4134.744, 4335.0, 4054.487, 4123.205, 4147.564
1722050959.2221,2024-07-26 20:29:19.222,44,false,0.0,4145.641, 4335.0, 4065.256, 4145.513, 4153.205
1722050959.2299,2024-07-26 20:29:19.229,45,false,0.0,4142.949, 4329.744, 4068.59, 4146.667, 4147.18
1722050959.2377,2024-07-26 20:29:19.237,46,false,0.0,4136.539, 4335.513, 4068.846, 4136.539, 4143.077
1722050959.2455,2024-07-26 20:29:19.245,47,false,0.0,4146.154, 4342.18, 4068.205, 4142.436, 4150.897
1722050959.2534,2024-07-26 20:29:19.253,48,false,0.0,4152.051, 4339.615, 4071.923, 4146.154, 4146.539
1722050959.2612,2024-07-26 20:29:19.261,49,false,0.0,4154.231, 4351.154, 4095.128, 4149.744, 4143.461
1722050959.269,2024-07-26 20:29:19.269,50,false,0.0,4170.256, 4367.051, 4120.513, 4165.897, 4159.615
1722050959.2768,2024-07-26 20:29:19.276,51,false,0.0,4180.0, 4355.897, 4121.41, 4175.641, 4165.0
1722050959.2846,2024-07-26 20:29:19.284,52,false,0.0,4173.333, 4340.256, 4110.513, 4177.308, 4151.282
1722050959.2924,2024-07-26 20:29:19.292,53,false,0.0,4166.154, 4341.41, 4099.359, 4180.256, 4141.667
1722050959.3002,2024-07-26 20:29:19.300,54,false,0.0,4153.59, 4339.744, 4084.359, 4172.436, 4135.897
1722050959.308,2024-07-26 20:29:19.308,55,false,0.0,4143.077, 4341.539, 4080.769, 4158.846, 4133.205
1722050959.3159,2024-07-26 20:29:19.315,56,false,0.0,4152.564, 4353.205, 4089.615, 4151.539, 4140.769
1722050959.3237,2024-07-26 20:29:19.323,57,false,0.0,4160.0, 4349.103, 4089.615, 4147.82, 4148.59
1722050959.3315,2024-07-26 20:29:19.331,58,false,0.0,4154.359, 4340.385, 4084.231, 4152.308, 4148.718
1722050959.3393,2024-07-26 20:29:19.339,59,false,0.0,4150.385, 4350.0, 4079.872, 4156.154, 4144.744
1722050959.3471,2024-07-26 20:29:19.347,60,false,0.0,4137.949, 4350.256, 4065.513, 4143.974, 4138.461
1722050959.3549,2024-07-26 20:29:19.354,61,false,0.0,4121.026, 4332.308, 4047.949, 4136.282, 4136.923
1722050959.3627,2024-07-26 20:29:19.362,62,false,0.0,4125.897, 4331.795, 4042.436, 4140.0, 4141.026
1722050959.3705,2024-07-26 20:29:19.370,63,false,0.0,4141.667, 4345.513, 4052.179, 4138.205, 4151.41
1722050959.3784,2024-07-26 20:29:19.378,64,false,0.0,4153.846, 4342.82, 4074.487, 4147.564, 4175.897
1722050959.3862,2024-07-26 20:29:19.386,65,false,0.0,4164.103, 4332.82, 4088.333, 4164.487, 4189.487
1722050959.394,2024-07-26 20:29:19.394,66,false,0.0,4152.308, 4337.564, 4080.641, 4150.897, 4164.103
1722050959.4018,2024-07-26 20:29:19.401,67,false,0.0,4126.923, 4349.744, 4075.769, 4133.461, 4139.231
1722050959.4096,2024-07-26 20:29:19.409,68,false,0.0,4129.872, 4348.461, 4082.179, 4151.154, 4146.154
1722050959.4174,2024-07-26 20:29:19.417,69,false,0.0,4142.436, 4331.795, 4077.436, 4161.41, 4146.154
1722050959.4252,2024-07-26 20:29:19.425,70,false,0.0,4127.692, 4319.615, 4067.564, 4141.923, 4128.333
1722050959.433,2024-07-26 20:29:19.433,71,false,0.0,4113.59, 4322.051, 4065.769, 4135.641, 4123.974
1722050959.4409,2024-07-26 20:29:19.440,72,false,0.0,4121.923, 4326.667, 4057.821, 4144.103, 4126.539
1722050959.4487,2024-07-26 20:29:19.448,73,false,0.0,4130.769, 4332.18, 4050.769, 4140.256, 4124.615
1722050959.4565,2024-07-26 20:29:19.456,74,false,0.0,4135.897, 4343.718, 4061.795, 4138.718, 4132.308
1722050959.4643,2024-07-26 20:29:19.464,75,false,0.0,4140.256, 4345.128, 4066.923, 4147.18, 4136.795
1722050959.4721,2024-07-26 20:29:19.472,76,false,0.0,4137.692, 4333.974, 4056.282, 4147.436, 4125.128
1722050959.4799,2024-07-26 20:29:19.479,77,false,0.0,4140.385, 4337.692, 4059.615, 4145.128, 4123.461
1722050959.4877,2024-07-26 20:29:19.487,78,false,0.0,4152.949, 4353.333, 4075.385, 4151.795, 4136.795
1722050959.4955,2024-07-26 20:29:19.495,79,false,0.0,4160.256, 4353.333, 4083.59, 4160.385, 4144.872
1722050959.5034,2024-07-26 20:29:19.503,80,false,0.0,4167.051, 4350.513, 4092.051, 4169.231, 4152.051
1722050959.5112,2024-07-26 20:29:19.511,81,false,0.0,4173.718, 4365.897, 4097.18, 4171.154, 4157.949
1722050959.519,2024-07-26 20:29:19.519,82,false,0.0,4160.769, 4374.487, 4085.513, 4156.026, 4147.564
1722050959.5268,2024-07-26 20:29:19.526,83,false,0.0,4146.154, 4356.282, 4076.539, 4148.846, 4138.205
1722050959.5346,2024-07-26 20:29:19.534,84,false,0.0,4159.359, 4339.103, 4080.385, 4164.872, 4145.641
1722050959.5424,2024-07-26 20:29:19.542,85,false,0.0,4171.923, 4339.103, 4077.436, 4168.59, 4146.282
1722050959.5502,2024-07-26 20:29:19.550,86,false,0.0,4158.077, 4333.974, 4070.897, 4152.949, 4133.077
1722050959.558,2024-07-26 20:29:19.558,87,false,0.0,4151.795, 4328.718, 4074.103, 4154.744, 4134.615
1722050959.5659,2024-07-26 20:29:19.565,88,false,0.0,4173.974, 4355.513, 4078.077, 4170.128, 4153.333
1722050959.5737,2024-07-26 20:29:19.573,89,false,0.0,4190.513, 4387.18, 4074.872, 4167.18, 4158.461
1722050959.5815,2024-07-26 20:29:19.581,90,false,0.0,4180.897, 4375.0, 4071.282, 4152.82, 4145.0
1722050959.5893,2024-07-26 20:29:19.589,91,false,0.0,4173.205, 4351.795, 4077.564, 4153.333, 4144.744
1722050959.5971,2024-07-26 20:29:19.597,92,false,0.0,4188.718, 4367.82, 4094.231, 4171.539, 4166.667
1722050959.6049,2024-07-26 20:29:19.604,93,false,0.0,4203.846, 4392.051, 4103.846, 4184.103, 4177.051
1722050959.6127,2024-07-26 20:29:19.612,94,false,0.0,4195.641, 4381.41, 4094.359, 4175.128, 4164.487
1722050959.6205,2024-07-26 20:29:19.620,95,false,0.0,4182.308, 4353.718, 4080.128, 4162.692, 4157.308
1722050959.6284,2024-07-26 20:29:19.628,96,false,0.0,4183.718, 4344.103, 4074.487, 4164.872, 4160.513
1722050959.6362,2024-07-26 20:29:19.636,97,false,0.0,4184.103, 4353.59, 4072.436, 4163.461, 4155.385
1722050959.644,2024-07-26 20:29:19.644,98,false,0.0,4173.077, 4360.128, 4071.026, 4152.308, 4149.744
1722050959.6518,2024-07-26 20:29:19.651,99,false,0.0,4173.333, 4361.923, 4076.667, 4155.769, 4156.795
1722050959.6596,2024-07-26 20:29:19.659,100,false,0.0,4188.846, 4368.205, 4088.205, 4168.974, 4163.077
1722050959.6674,2024-07-26 20:29:19.667,101,false,0.0,4189.231, 4360.897, 4091.154, 4165.641, 4160.641
1722050959.6752,2024-07-26 20:29:19.675,102,false,0.0,4175.385, 4339.744, 4080.769, 4156.026, 4159.359
1722050959.683,2024-07-26 20:29:19.683,103,false,0.0,4179.103, 4344.615, 4076.923, 4160.513, 4163.59
1722050959.6909,2024-07-26 20:29:19.690,104,false,0.0,4194.744, 4363.59, 4086.41, 4167.308, 4170.513
1722050959.6987,2024-07-26 20:29:19.698,105,false,0.0,4193.205, 4350.128, 4085.769, 4163.718, 4174.872
1722050959.7065,2024-07-26 20:29:19.706,106,false,0.0,4181.923, 4329.359, 4073.333, 4156.539, 4167.436
1722050959.7143,2024-07-26 20:29:19.714,107,false,0.0,4182.18, 4341.154, 4076.539, 4152.949, 4157.692
1722050959.7221,2024-07-26 20:29:19.722,108,false,0.0,4187.692, 4358.59, 4090.769, 4154.231, 4161.667
1722050959.7299,2024-07-26 20:29:19.729,109,false,0.0,4184.744, 4356.154, 4086.282, 4155.128, 4165.513
1722050959.7377,2024-07-26 20:29:19.737,110,false,0.0,4181.282, 4348.974, 4075.385, 4152.949, 4159.103
1722050959.7455,2024-07-26 20:29:19.745,111,false,0.0,4187.692, 4347.692, 4081.282, 4154.487, 4162.308
1722050959.7534,2024-07-26 20:29:19.753,112,false,0.0,4190.385, 4346.026, 4082.308, 4155.385, 4172.564
1722050959.7612,2024-07-26 20:29:19.761,113,false,0.0,4178.205, 4338.333, 4069.103, 4148.461, 4169.872
1722050959.769,2024-07-26 20:29:19.769,114,false,0.0,4172.692, 4330.256, 4071.154, 4149.872, 4166.282
1722050959.7768,2024-07-26 20:29:19.776,115,false,0.0,4182.051, 4331.923, 4082.949, 4160.0, 4172.82
1722050959.7846,2024-07-26 20:29:19.784,116,false,0.0,4185.0, 4337.436, 4080.513, 4158.205, 4177.949
1722050959.7924,2024-07-26 20:29:19.792,117,false,0.0,4185.256, 4336.667, 4080.769, 4159.231, 4182.436
1722050959.8002,2024-07-26 20:29:19.800,118,false,0.0,4195.385, 4332.051, 4086.41, 4172.436, 4186.41
1722050959.808,2024-07-26 20:29:19.808,119,false,0.0,4191.667, 4323.974, 4075.513, 4164.103, 4180.385
1722050959.8159,2024-07-26 20:29:19.815,120,false,0.0,4167.308, 4311.923, 4065.641, 4142.18, 4170.897
1722050959.8237,2024-07-26 20:29:19.823,121,false,0.0,4159.231, 4311.026, 4075.513, 4150.0, 4168.461
1722050959.8315,2024-07-26 20:29:19.831,122,false,0.0,4178.461, 4329.231, 4087.179, 4168.974, 4175.897
1722050959.8393,2024-07-26 20:29:19.839,123,false,0.0,4192.051, 4345.128, 4095.513, 4166.923, 4189.487
1722050959.8471,2024-07-26 20:29:19.847,124,false,0.0,4185.641, 4341.539, 4097.82, 4164.487, 4187.949
1722050959.8549,2024-07-26 20:29:19.854,125,false,0.0,4184.487, 4335.385, 4089.231, 4173.333, 4175.128
1722050959.8627,2024-07-26 20:29:19.862,126,false,0.0,4196.923, 4339.744, 4092.821, 4171.795, 4180.385
1722050959.8705,2024-07-26 20:29:19.870,127,false,0.0,4195.128, 4337.564, 4106.026, 4158.077, 4186.154
1722050959.8784,2024-07-26 20:29:19.878,0,false,0.0,4181.282, 4329.103, 4099.359, 4154.872, 4173.333
1722050959.8862,2024-07-26 20:29:19.886,1,false,0.0,4188.077, 4334.872, 4093.461, 4168.974, 4177.051
1722050959.894,2024-07-26 20:29:19.894,2,false,0.0,4200.769, 4344.359, 4105.256, 4182.051, 4196.282
1722050959.9018,2024-07-26 20:29:19.901,3,false,0.0,4191.795, 4339.615, 4100.769, 4184.359, 4191.795
1722050959.9096,2024-07-26 20:29:19.909,4,false,0.0,4184.487, 4333.718, 4081.795, 4186.282, 4178.205
1722050959.9174,2024-07-26 20:29:19.917,5,false,0.0,4191.795, 4335.769, 4080.641, 4184.615, 4180.256
1722050959.9252,2024-07-26 20:29:19.925,6,false,0.0,4192.308, 4341.539, 4084.872, 4171.667, 4184.231
1722050959.933,2024-07-26 20:29:19.933,7,false,0.0,4190.769, 4350.513, 4078.205, 4163.718, 4186.41
1722050959.9409,2024-07-26 20:29:19.940,8,false,0.0,4198.846, 4346.795, 4074.744, 4166.026, 4187.949
1722050959.9487,2024-07-26 20:29:19.948,9,false,0.0,4200.513, 4322.051, 4078.59, 4163.718, 4179.744
1722050959.9565,2024-07-26 20:29:19.956,10,false,0.0,4191.154, 4310.128, 4078.205, 4159.487, 4170.0
1722050959.9643,2024-07-26 20:29:19.964,11,false,0.0,4188.333, 4330.385, 4074.487, 4162.949, 4170.128
1722050959.9721,2024-07-26 20:29:19.972,12,false,0.0,4194.744, 4348.59, 4078.974, 4170.128, 4178.974
1722050959.9799,2024-07-26 20:29:19.979,13,false,0.0,4192.18, 4339.359, 4082.821, 4174.231, 4186.026
1722050959.9877,2024-07-26 20:29:19.987,14,false,0.0,4184.103, 4325.897, 4073.077, 4174.487, 4183.461
1722050959.9955,2024-07-26 20:29:19.995,15,false,0.0,4202.564, 4335.385, 4075.385, 4183.077, 4196.154
1722050960.0034,2024-07-26 20:29:20.003,16,false,0.0,4234.615, 4353.718, 4100.897, 4202.692, 4232.82
1722050960.0112,2024-07-26 20:29:20.011,17,false,0.0,4230.897, 4354.103, 4103.59, 4206.795, 4244.487
1722050960.019,2024-07-26 20:29:20.019,18,false,0.0,4212.051, 4344.103, 4080.385, 4191.667, 4228.461
1722050960.0268,2024-07-26 20:29:20.026,19,false,0.0,4221.795, 4343.718, 4079.872, 4189.103, 4237.564
1722050960.0346,2024-07-26 20:29:20.034,20,false,0.0,4228.59, 4338.333, 4086.795, 4197.82, 4251.539
1722050960.0424,2024-07-26 20:29:20.042,21,false,0.0,4215.513, 4316.154, 4069.487, 4198.846, 4234.872
1722050960.0502,2024-07-26 20:29:20.050,22,false,0.0,4223.974, 4311.41, 4066.795, 4203.461, 4232.564
1722050960.058,2024-07-26 20:29:20.058,23,false,0.0,4245.769, 4336.795, 4095.897, 4217.436, 4256.282
1722050960.0659,2024-07-26 20:29:20.065,24,false,0.0,4242.564, 4342.82, 4110.256, 4221.41, 4256.41
1722050960.0737,2024-07-26 20:29:20.073,25,false,0.0,4230.128, 4316.154, 4101.539, 4208.461, 4236.41
1722050960.0815,2024-07-26 20:29:20.081,26,false,0.0,4231.026, 4315.385, 4106.026, 4195.513, 4232.18
1722050960.0893,2024-07-26 20:29:20.089,27,false,0.0,4238.077, 4348.59, 4123.333, 4200.256, 4243.461
1722050960.0971,2024-07-26 20:29:20.097,28,false,0.0,4243.077, 4354.872, 4123.59, 4211.026, 4252.564
1722050960.1049,2024-07-26 20:29:20.104,29,false,0.0,4238.333, 4333.077, 4110.641, 4206.282, 4246.667
1722050960.1127,2024-07-26 20:29:20.112,30,false,0.0,4227.051, 4331.667, 4110.385, 4201.41, 4230.897
1722050960.1205,2024-07-26 20:29:20.120,31,false,0.0,4224.744, 4341.026, 4116.539, 4211.282, 4223.718
1722050960.1284,2024-07-26 20:29:20.128,32,false,0.0,4229.487, 4342.308, 4111.923, 4212.949, 4223.846
1722050960.1362,2024-07-26 20:29:20.136,33,false,0.0,4230.385, 4356.795, 4109.359, 4204.487, 4224.487
1722050960.144,2024-07-26 20:29:20.144,34,false,0.0,4230.256, 4365.0, 4111.795, 4208.974, 4228.461
1722050960.1518,2024-07-26 20:29:20.151,35,false,0.0,4232.692, 4345.128, 4105.0, 4216.667, 4228.077
1722050960.1596,2024-07-26 20:29:20.159,36,false,0.0,4236.026, 4343.077, 4102.308, 4212.564, 4223.846
1722050960.1674,2024-07-26 20:29:20.167,37,false,0.0,4233.846, 4357.18, 4107.564, 4205.385, 4223.974
1722050960.1752,2024-07-26 20:29:20.175,38,false,0.0,4222.18, 4334.872, 4096.026, 4199.231, 4214.231
1722050960.183,2024-07-26 20:29:20.183,39,false,0.0,4215.256, 4311.154, 4079.103, 4195.128, 4195.513
1722050960.1909,2024-07-26 20:29:20.190,40,false,0.0,4218.718, 4317.564, 4080.256, 4194.615, 4191.923
1722050960.1987,2024-07-26 20:29:20.198,41,false,0.0,4219.872, 4313.205, 4083.077, 4195.128, 4198.333
1722050960.2065,2024-07-26 20:29:20.206,42,false,0.0,4226.539, 4323.846, 4085.385, 4201.923, 4203.461
1722050960.2143,2024-07-26 20:29:20.214,43,false,0.0,4244.615, 4372.18, 4103.077, 4212.82, 4216.154
1722050960.2221,2024-07-26 20:29:20.222,44,false,0.0,4249.487, 4373.333, 4115.0, 4210.769, 4224.615
1722050960.2299,2024-07-26 20:29:20.229,45,false,0.0,4239.744, 4331.026, 4105.513, 4200.256, 4213.718
1722050960.2377,2024-07-26 20:29:20.237,46,false,0.0,4240.513, 4338.846, 4099.487, 4197.308, 4204.615
1722050960.2455,2024-07-26 20:29:20.245,47,false,0.0,4249.231, 4363.077, 4106.026, 4200.513, 4211.41
1722050960.2534,2024-07-26 20:29:20.253,48,false,0.0,4250.897, 4344.615, 4106.795, 4206.282, 4213.718
1722050960.2612,2024-07-26 20:29:20.261,49,false,0.0,4248.333, 4333.077, 4101.154, 4210.513, 4202.436
1722050960.269,2024-07-26 20:29:20.269,50,false,0.0,4248.333, 4348.59, 4102.436, 4204.231, 4199.872
1722050960.2768,2024-07-26 20:29:20.276,51,false,0.0,4251.923, 4355.513, 4107.18, 4194.487, 4213.205
1722050960.2846,2024-07-26 20:29:20.284,52,false,0.0,4252.051, 4349.744, 4101.923, 4192.308, 4214.231
1722050960.2924,2024-07-26 20:29:20.292,53,false,0.0,4243.59, 4335.641, 4094.744, 4196.282, 4197.564
1722050960.3002,2024-07-26 20:29:20.300,54,false,0.0,4239.744, 4327.564, 4099.872, 4204.103, 4197.18
1722050960.308,2024-07-26 20:29:20.308,55,false,0.0,4246.539, 4341.282, 4105.641, 4211.282, 4212.051
1722050960.3159,2024-07-26 20:29:20.315,56,false,0.0,4249.744, 4348.718, 4103.333, 4210.0, 4209.872
1722050960.3237,2024-07-26 20:29:20.323,57,false,0.0,4244.615, 4342.051, 4105.256, 4202.051, 4199.744
1722050960.3315,2024-07-26 20:29:20.331,58,false,0.0,4239.872, 4348.461, 4108.333, 4194.359, 4203.205
1722050960.3393,2024-07-26 20:29:20.339,59,false,0.0,4238.59, 4354.744, 4103.205, 4189.487, 4205.385
1722050960.3471,2024-07-26 20:29:20.347,60,false,0.0,4237.308, 4351.923, 4101.539, 4187.82, 4199.872
1722050960.3549,2024-07-26 20:29:20.354,61,false,0.0,4235.385, 4355.513, 4104.487, 4191.41, 4199.615
1722050960.3627,2024-07-26 20:29:20.362,62,false,0.0,4238.461, 4349.103, 4102.564, 4199.359, 4199.615
1722050960.3705,2024-07-26 20:29:20.370,63,false,0.0,4245.897, 4338.205, 4105.256, 4200.897, 4196.667
1722050960.3784,2024-07-26 20:29:20.378,64,false,0.0,4244.487, 4348.077, 4109.744, 4191.026, 4200.0
1722050960.3862,2024-07-26 20:29:20.386,65,false,0.0,4235.641, 4350.513, 4099.744, 4181.282, 4200.385
1722050960.394,2024-07-26 20:29:20.394,66,false,0.0,4230.128, 4337.564, 4088.59, 4172.308, 4189.744
1722050960.4018,2024-07-26 20:29:20.401,67,false,0.0,4220.256, 4335.385, 4085.897, 4157.564, 4184.744
1722050960.4096,2024-07-26 20:29:20.409,68,false,0.0,4208.205, 4329.103, 4078.974, 4154.872, 4191.026
1722050960.4174,2024-07-26 20:29:20.417,69,false,0.0,4217.051, 4329.615, 4084.103, 4174.744, 4203.59
1722050960.4252,2024-07-26 20:29:20.425,70,false,0.0,4239.103, 4353.718, 4112.564, 4190.769, 4222.564
1722050960.433,2024-07-26 20:29:20.433,71,false,0.0,4239.872, 4344.872, 4118.461, 4183.846, 4224.615
1722050960.4409,2024-07-26 20:29:20.440,72,false,0.0,4222.949, 4318.205, 4090.897, 4166.667, 4196.154
1722050960.4487,2024-07-26 20:29:20.448,73,false,0.0,4224.359, 4349.872, 4083.846, 4158.461, 4181.923
1722050960.4565,2024-07-26 20:29:20.456,74,false,0.0,4239.359, 4376.41, 4091.923, 4158.205, 4196.795
1722050960.4643,2024-07-26 20:29:20.464,75,false,0.0,4235.256, 4339.103, 4074.359, 4155.641, 4196.282
1722050960.4721,2024-07-26 20:29:20.472,76,false,0.0,4232.949, 4327.692, 4070.513, 4164.231, 4192.564
1722050960.4799,2024-07-26 20:29:20.479,77,false,0.0,4261.667, 4358.333, 4102.436, 4191.795, 4217.18
1722050960.4877,2024-07-26 20:29:20.487,78,false,0.0,4273.461, 4354.872, 4104.231, 4195.513, 4220.769
1722050960.4955,2024-07-26 20:29:20.495,79,false,0.0,4242.82, 4341.795, 4075.641, 4165.128, 4190.513
1722050960.5034,2024-07-26 20:29:20.503,80,false,0.0,4231.539, 4362.692, 4080.385, 4157.18, 4190.897
1722050960.5112,2024-07-26 20:29:20.511,81,false,0.0,4251.026, 4375.513, 4094.744, 4176.026, 4211.923
1722050960.519,2024-07-26 20:29:20.519,82,false,0.0,4248.718, 4357.82, 4082.179, 4176.539, 4205.897
1722050960.5268,2024-07-26 20:29:20.526,83,false,0.0,4237.692, 4343.077, 4082.308, 4173.333, 4201.41
1722050960.5346,2024-07-26 20:29:20.534,84,false,0.0,4250.769, 4353.846, 4102.051, 4188.974, 4213.461
1722050960.5424,2024-07-26 20:29:20.542,85,false,0.0,4261.667, 4370.769, 4109.103, 4194.487, 4212.82
1722050960.5502,2024-07-26 20:29:20.550,86,false,0.0,4258.077, 4362.692, 4110.897, 4183.59, 4209.487
1722050960.558,2024-07-26 20:29:20.558,87,false,0.0,4253.846, 4345.513, 4109.359, 4176.923, 4211.026
1722050960.5659,2024-07-26 20:29:20.565,88,false,0.0,4240.256, 4354.103, 4094.487, 4171.923, 4196.41
1722050960.5737,2024-07-26 20:29:20.573,89,false,0.0,4226.667, 4367.949, 4092.051, 4171.41, 4186.026
1722050960.5815,2024-07-26 20:29:20.581,90,false,0.0,4239.872, 4362.436, 4105.897, 4187.18, 4200.897
1722050960.5893,2024-07-26 20:29:20.589,91,false,0.0,4256.026, 4360.128, 4104.615, 4198.333, 4207.949
1722050960.5971,2024-07-26 20:29:20.597,92,false,0.0,4243.974, 4366.923, 4093.974, 4188.846, 4197.692
1722050960.6049,2024-07-26 20:29:20.604,93,false,0.0,4235.769, 4366.539, 4098.205, 4185.513, 4205.385
1722050960.6127,2024-07-26 20:29:20.612,94,false,0.0,4253.59, 4365.897, 4108.461, 4196.667, 4226.282
1722050960.6205,2024-07-26 20:29:20.620,95,false,0.0,4255.0, 4366.923, 4105.385, 4191.026, 4222.051
1722050960.6284,2024-07-26 20:29:20.628,96,false,0.0,4228.846, 4362.564, 4091.282, 4173.205, 4201.795
1722050960.6362,2024-07-26 20:29:20.636,97,false,0.0,4225.641, 4366.41, 4088.461, 4179.103, 4203.205
1722050960.644,2024-07-26 20:29:20.644,98,false,0.0,4243.718, 4375.513, 4098.974, 4193.974, 4216.282
1722050960.6518,2024-07-26 20:29:20.651,99,false,0.0,4234.487, 4363.59, 4093.461, 4186.026, 4207.949
1722050960.6596,2024-07-26 20:29:20.659,100,false,0.0,4211.923, 4343.846, 4075.128, 4172.436, 4188.59
1722050960.6674,2024-07-26 20:29:20.667,101,false,0.0,4215.385, 4354.103, 4079.615, 4171.41, 4189.487
1722050960.6752,2024-07-26 20:29:20.675,102,false,0.0,4232.051, 4382.82, 4098.205, 4176.026, 4210.385
1722050960.683,2024-07-26 20:29:20.683,103,false,0.0,4241.923, 4387.564, 4099.744, 4184.744, 4225.769
1722050960.6909,2024-07-26 20:29:20.690,104,false,0.0,4243.846, 4366.539, 4092.179, 4186.923, 4219.615
1722050960.6987,2024-07-26 20:29:20.698,105,false,0.0,4235.256, 4352.564, 4090.385, 4172.18, 4208.718
1722050960.7065,2024-07-26 20:29:20.706,106,false,0.0,4229.487, 4359.744, 4086.282, 4165.256, 4213.718
1722050960.7143,2024-07-26 20:29:20.714,107,false,0.0,4238.333, 4374.231, 4080.0, 4176.667, 4220.769
1722050960.7221,2024-07-26 20:29:20.722,108,false,0.0,4248.59, 4384.359, 4086.282, 4187.051, 4220.513
1722050960.7299,2024-07-26 20:29:20.729,109,false,0.0,4256.026, 4391.923, 4102.436, 4196.667, 4228.974
1722050960.7377,2024-07-26 20:29:20.737,110,false,0.0,4259.872, 4393.846, 4100.641, 4199.744, 4233.718
1722050960.7455,2024-07-26 20:29:20.745,111,false,0.0,4247.949, 4376.667, 4077.436, 4179.487, 4216.41
1722050960.7534,2024-07-26 20:29:20.753,112,false,0.0,4233.461, 4351.795, 4067.821, 4161.667, 4204.744
1722050960.7612,2024-07-26 20:29:20.761,113,false,0.0,4233.974, 4352.692, 4076.282, 4170.385, 4211.154
1722050960.769,2024-07-26 20:29:20.769,114,false,0.0,4235.769, 4373.718, 4075.385, 4179.615, 4212.436
1722050960.7768,2024-07-26 20:29:20.776,115,false,0.0,4233.718, 4380.513, 4076.41, 4175.385, 4210.897
1722050960.7846,2024-07-26 20:29:20.784,116,false,0.0,4235.897, 4371.282, 4093.205, 4173.846, 4212.949
1722050960.7924,2024-07-26 20:29:20.792,117,false,0.0,4233.333, 4364.487, 4093.077, 4172.308, 4200.641
1722050960.8002,2024-07-26 20:29:20.800,118,false,0.0,4231.154, 4368.333, 4075.0, 4166.41, 4182.949
1722050960.808,2024-07-26 20:29:20.808,119,false,0.0,4243.077, 4381.154, 4076.539, 4163.974, 4180.513
1722050960.8159,2024-07-26 20:29:20.815,120,false,0.0,4249.359, 4380.128, 4087.692, 4162.949, 4178.59
1722050960.8237,2024-07-26 20:29:20.823,121,false,0.0,4243.333, 4365.385, 4083.718, 4161.923, 4169.487
1722050960.8315,2024-07-26 20:29:20.831,122,false,0.0,4250.385, 4374.487, 4083.461, 4165.256, 4171.026
1722050960.8393,2024-07-26 20:29:20.839,123,false,0.0,4258.974, 4392.18, 4090.385, 4166.282, 4176.923
1722050960.8471,2024-07-26 20:29:20.847,124,false,0.0,4244.359, 4379.615, 4082.692, 4162.051, 4169.103
1722050960.8549,2024-07-26 20:29:20.854,125,false,0.0,4235.0, 4370.897, 4073.59, 4160.897, 4158.846
1722050960.8627,2024-07-26 20:29:20.862,126,false,0.0,4244.615, 4386.026, 4078.59, 4159.744, 4158.333
1722050960.8705,2024-07-26 20:29:20.870,127,false,0.0,4239.359, 4380.128, 4078.974, 4154.872, 4155.256
1722050960.8784,2024-07-26 20:29:20.878,0,false,0.0,4227.949, 4361.539, 4073.974, 4158.461, 4149.231
1722050960.8862,2024-07-26 20:29:20.886,1,false,0.0,4242.18, 4372.436, 4084.103, 4170.513, 4155.769
1722050960.894,2024-07-26 20:29:20.894,2,false,0.0,4249.487, 4389.487, 4096.282, 4170.128, 4165.128
1722050960.9018,2024-07-26 20:29:20.901,3,false,0.0,4227.564, 4383.718, 4091.539, 4158.461, 4161.026
1722050960.9096,2024-07-26 20:29:20.909,4,false,0.0,4220.641, 4378.846, 4088.846, 4157.436, 4158.718
1722050960.9174,2024-07-26 20:29:20.917,5,false,0.0,4235.641, 4393.59, 4103.974, 4164.487, 4166.795
1722050960.9252,2024-07-26 20:29:20.925,6,false,0.0,4232.82, 4405.897, 4116.282, 4163.718, 4168.59
1722050960.933,2024-07-26 20:29:20.933,7,false,0.0,4223.974, 4392.949, 4111.795, 4163.846, 4166.667
1722050960.9409,2024-07-26 20:29:20.940,8,false,0.0,4234.872, 4378.205, 4105.513, 4176.154, 4177.436
1722050960.9487,2024-07-26 20:29:20.948,9,false,0.0,4244.487, 4388.333, 4107.051, 4188.461, 4191.923
1722050960.9565,2024-07-26 20:29:20.956,10,false,0.0,4242.051, 4396.026, 4108.461, 4190.385, 4196.282
1722050960.9643,2024-07-26 20:29:20.964,11,false,0.0,4241.667, 4383.846, 4104.103, 4186.026, 4195.128
1722050960.9721,2024-07-26 20:29:20.972,12,false,0.0,4240.385, 4378.461, 4092.436, 4177.18, 4191.282
1722050960.9799,2024-07-26 20:29:20.979,13,false,0.0,4232.436, 4380.0, 4076.667, 4163.59, 4180.897
1722050960.9877,2024-07-26 20:29:20.987,14,false,0.0,4225.0, 4378.077, 4073.205, 4152.18, 4171.154
1722050960.9955,2024-07-26 20:29:20.995,15,false,0.0,4219.744, 4384.487, 4086.282, 4149.744, 4173.974
1722050961.0034,2024-07-26 20:29:21.003,16,false,0.0,4219.103, 4382.692, 4094.103, 4155.128, 4187.18
1722050961.0112,2024-07-26 20:29:21.011,17,false,0.0,4231.795, 4367.949, 4091.923, 4161.41, 4198.077
1722050961.019,2024-07-26 20:29:21.019,18,false,0.0,4246.539, 4377.82, 4095.641, 4161.41, 4202.051
1722050961.0268,2024-07-26 20:29:21.026,19,false,0.0,4241.282, 4392.436, 4102.436, 4158.974, 4201.795
1722050961.0346,2024-07-26 20:29:21.034,20,false,0.0,4227.949, 4375.385, 4103.718, 4168.077, 4201.667
1722050961.0424,2024-07-26 20:29:21.042,21,false,0.0,4232.692, 4368.333, 4106.539, 4182.564, 4207.436
1722050961.0502,2024-07-26 20:29:21.050,22,false,0.0,4237.436, 4378.974, 4104.487, 4174.872, 4209.487
1722050961.058,2024-07-26 20:29:21.058,23,false,0.0,4219.231, 4362.82, 4090.641, 4152.436, 4198.077
1722050961.0659,2024-07-26 20:29:21.065,24,false,0.0,4210.0, 4351.667, 4086.795, 4157.051, 4191.923
1722050961.0737,2024-07-26 20:29:21.073,25,false,0.0,4224.359, 4367.692, 4094.487, 4177.051, 4194.359
1722050961.0815,2024-07-26 20:29:21.081,26,false,0.0,4224.487, 4366.923, 4091.41, 4168.974, 4184.103
1722050961.0893,2024-07-26 20:29:21.089,27,false,0.0,4217.692, 4371.154, 4094.872, 4158.205, 4184.103
1722050961.0971,2024-07-26 20:29:21.097,28,false,0.0,4234.615, 4393.718, 4113.205, 4173.205, 4209.103
1722050961.1049,2024-07-26 20:29:21.104,29,false,0.0,4236.667, 4366.41, 4105.385, 4171.667, 4206.282
1722050961.1127,2024-07-26 20:29:21.112,30,false,0.0,4209.231, 4331.154, 4085.256, 4151.154, 4177.308
1722050961.1205,2024-07-26 20:29:21.120,31,false,0.0,4209.487, 4373.846, 4103.205, 4162.436, 4189.615
1722050961.1284,2024-07-26 20:29:21.128,32,false,0.0,4234.615, 4410.513, 4125.0, 4187.692, 4225.128
1722050961.1362,2024-07-26 20:29:21.136,33,false,0.0,4237.82, 4384.231, 4115.385, 4187.82, 4228.974
1722050961.144,2024-07-26 20:29:21.144,34,false,0.0,4231.282, 4382.051, 4111.026, 4181.667, 4220.897
1722050961.1518,2024-07-26 20:29:21.151,35,false,0.0,4227.436, 4395.128, 4106.923, 4178.59, 4213.974
1722050961.1596,2024-07-26 20:29:21.159,36,false,0.0,4217.692, 4365.897, 4083.718, 4170.0, 4198.205
1722050961.1674,2024-07-26 20:29:21.167,37,false,0.0,4222.82, 4357.436, 4086.282, 4171.026, 4200.769
1722050961.1752,2024-07-26 20:29:21.175,38,false,0.0,4236.026, 4381.667, 4109.615, 4174.231, 4213.077
1722050961.183,2024-07-26 20:29:21.183,39,false,0.0,4223.59, 4371.539, 4098.59, 4162.308, 4196.41
1722050961.1909,2024-07-26 20:29:21.190,40,false,0.0,4210.641, 4366.539, 4082.051, 4159.359, 4178.59
1722050961.1987,2024-07-26 20:29:21.198,41,false,0.0,4217.949, 4398.461, 4094.487, 4169.103, 4185.641
1722050961.2065,2024-07-26 20:29:21.206,42,false,0.0,4212.18, 4394.103, 4093.205, 4162.308, 4185.256
1722050961.2143,2024-07-26 20:29:21.214,43,false,0.0,4207.051, 4366.667, 4076.923, 4158.333, 4186.026
1722050961.2221,2024-07-26 20:29:21.222,44,false,0.0,4248.718, 4388.59, 4094.872, 4186.667, 4228.846
1722050961.2299,2024-07-26 20:29:21.229,45,false,0.0,4301.026, 4407.436, 4126.41, 4211.923, 4284.231
1722050961.2377,2024-07-26 20:29:21.237,46,false,0.0,4303.205, 4371.026, 4117.692, 4201.795, 4298.718
1722050961.2455,2024-07-26 20:29:21.245,47,false,0.0,4289.231, 4348.718, 4088.077, 4188.461, 4293.846
1722050961.2534,2024-07-26 20:29:21.253,48,false,0.0,4317.564, 4367.436, 4087.179, 4193.718, 4318.205
1722050961.2612,2024-07-26 20:29:21.261,49,false,0.0,4353.59, 4376.539, 4102.436, 4191.154, 4349.103
1722050961.269,2024-07-26 20:29:21.269,50,false,0.0,4346.154, 4378.846, 4099.872, 4178.846, 4343.333
1722050961.2768,2024-07-26 20:29:21.276,51,false,0.0,4330.897, 4384.872, 4094.487, 4183.333, 4328.846
1722050961.2846,2024-07-26 20:29:21.284,52,false,0.0,4338.59, 4364.103, 4103.205, 4193.974, 4334.872
1722050961.2924,2024-07-26 20:29:21.292,53,false,0.0,4334.231, 4344.231, 4108.59, 4193.718, 4333.718
1722050961.3002,2024-07-26 20:29:21.300,54,false,0.0,4316.795, 4366.282, 4106.026, 4194.359, 4319.744
1722050961.308,2024-07-26 20:29:21.308,55,false,0.0,4313.846, 4383.205, 4102.436, 4190.256, 4312.308
1722050961.3159,2024-07-26 20:29:21.315,56,false,0.0,4307.949, 4365.513, 4098.205, 4177.82, 4304.231
1722050961.3237,2024-07-26 20:29:21.323,57,false,0.0,4295.256, 4357.436, 4104.103, 4183.718, 4298.077
1722050961.3315,2024-07-26 20:29:21.331,58,false,0.0,4295.385, 4371.154, 4117.564, 4196.41, 4302.564
1722050961.3393,2024-07-26 20:29:21.339,59,false,0.0,4293.205, 4379.359, 4121.154, 4187.18, 4300.385
1722050961.3471,2024-07-26 20:29:21.347,60,false,0.0,4286.923, 4373.59, 4121.539, 4184.231, 4296.282
1722050961.3549,2024-07-26 20:29:21.354,61,false,0.0,4297.308, 4363.846, 4121.667, 4198.846, 4302.18
1722050961.3627,2024-07-26 20:29:21.362,62,false,0.0,4304.615, 4366.667, 4113.974, 4196.667, 4299.359
1722050961.3705,2024-07-26 20:29:21.370,63,false,0.0,4293.461, 4369.487, 4109.103, 4188.077, 4290.0
1722050961.3784,2024-07-26 20:29:21.378,64,false,0.0,4285.385, 4349.872, 4102.949, 4195.256, 4288.846
1722050961.3862,2024-07-26 20:29:21.386,65,false,0.0,4282.051, 4342.308, 4090.897, 4195.513, 4286.41
1722050961.394,2024-07-26 20:29:21.394,66,false,0.0,4275.385, 4360.0, 4096.41, 4185.256, 4288.461
1722050961.4018,2024-07-26 20:29:21.401,67,false,0.0,4271.923, 4358.333, 4105.128, 4180.0, 4298.333
1722050961.4096,2024-07-26 20:29:21.409,68,false,0.0,4271.154, 4356.282, 4093.205, 4170.513, 4298.718
1722050961.4174,2024-07-26 20:29:21.417,69,false,0.0,4274.231, 4382.18, 4096.154, 4164.359, 4305.385
1722050961.4252,2024-07-26 20:29:21.425,70,false,0.0,4282.82, 4383.718, 4117.18, 4180.769, 4327.82
1722050961.433,2024-07-26 20:29:21.433,71,false,0.0,4284.103, 4367.051, 4112.436, 4198.077, 4330.769
1722050961.4409,2024-07-26 20:29:21.440,72,false,0.0,4278.077, 4381.539, 4098.333, 4192.82, 4315.641
1722050961.4487,2024-07-26 20:29:21.448,73,false,0.0,4275.0, 4381.923, 4101.923, 4182.18, 4315.897
1722050961.4565,2024-07-26 20:29:21.456,74,false,0.0,4274.615, 4352.692, 4104.615, 4185.769, 4323.205
1722050961.4643,2024-07-26 20:29:21.464,75,false,0.0,4281.282, 4360.897, 4107.82, 4193.718, 4324.744
1722050961.4721,2024-07-26 20:29:21.472,76,false,0.0,4289.615, 4390.513, 4118.718, 4188.205, 4331.282
1722050961.4799,2024-07-26 20:29:21.479,77,false,0.0,4280.641, 4379.359, 4114.872, 4174.231, 4335.385
1722050961.4877,2024-07-26 20:29:21.487,78,false,0.0,4265.897, 4345.513, 4099.103, 4169.487, 4326.282
1722050961.4955,2024-07-26 20:29:21.495,79,false,0.0,4267.82, 4334.615, 4098.718, 4175.513, 4319.487
1722050961.5034,2024-07-26 20:29:21.503,80,false,0.0,4277.051, 4357.436, 4114.359, 4187.051, 4329.615
1722050961.5112,2024-07-26 20:29:21.511,81,false,0.0,4278.718, 4381.282, 4121.667, 4197.436, 4339.359
1722050961.519,2024-07-26 20:29:21.519,82,false,0.0,4273.077, 4367.949, 4110.385, 4194.359, 4328.974
1722050961.5268,2024-07-26 20:29:21.526,83,false,0.0,4269.487, 4348.718, 4106.154, 4187.564, 4322.308
1722050961.5346,2024-07-26 20:29:21.534,84,false,0.0,4277.18, 4363.205, 4119.359, 4197.692, 4341.282
1722050961.5424,2024-07-26 20:29:21.542,85,false,0.0,4289.359, 4379.231, 4119.231, 4210.769, 4355.897
1722050961.5502,2024-07-26 20:29:21.550,86,false,0.0,4295.0, 4376.667, 4107.308, 4207.308, 4351.41
1722050961.558,2024-07-26 20:29:21.558,87,false,0.0,4292.436, 4374.359, 4108.077, 4196.026, 4349.487
1722050961.5659,2024-07-26 20:29:21.565,88,false,0.0,4277.436, 4369.615, 4105.385, 4184.103, 4339.744
1722050961.5737,2024-07-26 20:29:21.573,89,false,0.0,4264.103, 4359.359, 4100.385, 4172.564, 4316.923
1722050961.5815,2024-07-26 20:29:21.581,90,false,0.0,4272.692, 4350.897, 4113.333, 4171.539, 4316.539
1722050961.5893,2024-07-26 20:29:21.589,91,false,0.0,4281.026, 4345.385, 4116.923, 4179.103, 4329.103
1722050961.5971,2024-07-26 20:29:21.597,92,false,0.0,4271.539, 4356.923, 4105.641, 4184.103, 4319.615
1722050961.6049,2024-07-26 20:29:21.604,93,false,0.0,4273.59, 4384.231, 4116.795, 4189.231, 4317.82
1722050961.6127,2024-07-26 20:29:21.612,94,false,0.0,4287.564, 4390.641, 4129.872, 4192.436, 4340.385
1722050961.6205,2024-07-26 20:29:21.620,95,false,0.0,4282.436, 4371.41, 4117.308, 4188.974, 4342.692
1722050961.6284,2024-07-26 20:29:21.628,96,false,0.0,4273.718, 4366.41, 4113.077, 4194.872, 4327.564
1722050961.6362,2024-07-26 20:29:21.636,97,false,0.0,4281.282, 4381.154, 4119.615, 4207.051, 4332.436
1722050961.644,2024-07-26 20:29:21.644,98,false,0.0,4280.0, 4377.82, 4108.461, 4197.692, 4336.923
1722050961.6518,2024-07-26 20:29:21.651,99,false,0.0,4269.359, 4359.487, 4101.41, 4183.718, 4325.769
1722050961.6596,2024-07-26 20:29:21.659,100,false,0.0,4273.718, 4368.461, 4114.103, 4195.769, 4326.282
1722050961.6674,2024-07-26 20:29:21.667,101,false,0.0,4276.539, 4382.18, 4117.436, 4200.641, 4323.461
1722050961.6752,2024-07-26 20:29:21.675,102,false,0.0,4260.769, 4358.59, 4110.641, 4179.872, 4298.59
1722050961.683,2024-07-26 20:29:21.683,103,false,0.0,4255.897, 4346.923, 4122.051, 4179.359, 4292.18
1722050961.6909,2024-07-26 20:29:21.690,104,false,0.0,4270.897, 4373.077, 4142.564, 4200.128, 4315.385
1722050961.6987,2024-07-26 20:29:21.698,105,false,0.0,4277.18, 4369.744, 4141.154, 4199.359, 4328.718
1722050961.7065,2024-07-26 20:29:21.706,106,false,0.0,4272.564, 4344.231, 4124.487, 4191.923, 4330.897
1722050961.7143,2024-07-26 20:29:21.714,107,false,0.0,4272.949, 4357.308, 4122.82, 4201.41, 4336.41
1722050961.7221,2024-07-26 20:29:21.722,108,false,0.0,4273.718, 4369.231, 4132.436, 4206.154, 4339.872
1722050961.7299,2024-07-26 20:29:21.729,109,false,0.0,4272.692, 4351.026, 4130.0, 4202.564, 4351.795
1722050961.7377,2024-07-26 20:29:21.737,110,false,0.0,4275.641, 4354.487, 4121.282, 4205.641, 4365.256
1722050961.7455,2024-07-26 20:29:21.745,111,false,0.0,4275.897, 4369.615, 4119.231, 4206.923, 4352.308
1722050961.7534,2024-07-26 20:29:21.753,112,false,0.0,4274.103, 4355.641, 4115.0, 4200.0, 4335.385
1722050961.7612,2024-07-26 20:29:21.761,113,false,0.0,4275.897, 4345.897, 4107.82, 4191.795, 4339.744
1722050961.769,2024-07-26 20:29:21.769,114,false,0.0,4273.974, 4357.82, 4112.82, 4185.513, 4339.744
1722050961.7768,2024-07-26 20:29:21.776,115,false,0.0,4273.077, 4361.539, 4132.051, 4188.718, 4339.103
1722050961.7846,2024-07-26 20:29:21.784,116,false,0.0,4282.308, 4357.051, 4147.949, 4201.154, 4356.026
1722050961.7924,2024-07-26 20:29:21.792,117,false,0.0,4281.539, 4354.231, 4140.256, 4200.0, 4353.718
1722050961.8002,2024-07-26 20:29:21.800,118,false,0.0,4258.205, 4349.231, 4116.282, 4180.641, 4321.41
1722050961.808,2024-07-26 20:29:21.808,119,false,0.0,4239.359, 4353.333, 4108.205, 4170.0, 4306.282
1722050961.8159,2024-07-26 20:29:21.815,120,false,0.0,4239.744, 4361.026, 4117.18, 4179.359, 4314.103
1722050961.8237,2024-07-26 20:29:21.823,121,false,0.0,4244.615, 4347.692, 4117.18, 4192.308, 4318.461
1722050961.8315,2024-07-26 20:29:21.831,122,false,0.0,4250.256, 4335.256, 4111.154, 4197.308, 4321.282
1722050961.8393,2024-07-26 20:29:21.839,123,false,0.0,4259.487, 4355.385, 4115.385, 4197.949, 4326.923
1722050961.8471,2024-07-26 20:29:21.847,124,false,0.0,4261.026, 4375.128, 4120.769, 4198.718, 4327.051
1722050961.8549,2024-07-26 20:29:21.854,125,false,0.0,4255.897, 4361.41, 4118.59, 4200.256, 4324.103
1722050961.8627,2024-07-26 20:29:21.862,126,false,0.0,4261.282, 4348.846, 4119.231, 4203.718, 4328.205
1722050961.8705,2024-07-26 20:29:21.870,127,false,0.0,4273.59, 4361.667, 4126.795, 4207.82, 4342.308
1722050961.8784,2024-07-26 20:29:21.878,0,false,0.0,4271.539, 4367.692, 4128.974, 4205.897, 4347.18
1722050961.8862,2024-07-26 20:29:21.886,1,false,0.0,4260.641, 4359.615, 4121.923, 4199.487, 4333.077
1722050961.894,2024-07-26 20:29:21.894,2,false,0.0,4259.872, 4364.872, 4121.539, 4199.231, 4327.692
1722050961.9018,2024-07-26 20:29:21.901,3,false,0.0,4258.461, 4375.256, 4130.0, 4200.0, 4335.513
1722050961.9096,2024-07-26 20:29:21.909,4,false,0.0,4247.308, 4372.949, 4131.41, 4194.231, 4333.846
1722050961.9174,2024-07-26 20:29:21.917,5,false,0.0,4245.0, 4369.744, 4130.769, 4194.744, 4333.205
1722050961.9252,2024-07-26 20:29:21.925,6,false,0.0,4244.744, 4361.282, 4128.333, 4198.59, 4335.256
1722050961.933,2024-07-26 20:29:21.933,7,false,0.0,4228.333, 4336.923, 4107.18, 4188.59, 4316.667
1722050961.9409,2024-07-26 20:29:21.940,8,false,0.0,4227.18, 4331.923, 4092.564, 4185.128, 4306.026
1722050961.9487,2024-07-26 20:29:21.948,9,false,0.0,4256.282, 4364.487, 4113.846, 4203.846, 4327.949
1722050961.9565,2024-07-26 20:29:21.956,10,false,0.0,4271.41, 4387.564, 4133.205, 4215.256, 4341.667
1722050961.9643,2024-07-26 20:29:21.964,11,false,0.0,4262.436, 4375.641, 4126.026, 4210.256, 4336.41
1722050961.9721,2024-07-26 20:29:21.972,12,false,0.0,4259.359, 4361.923, 4125.769, 4206.795, 4340.769
1722050961.9799,2024-07-26 20:29:21.979,13,false,0.0,4261.539, 4364.744, 4137.564, 4208.59, 4347.436
1722050961.9877,2024-07-26 20:29:21.987,14,false,0.0,4263.974, 4372.436, 4140.385, 4219.103, 4346.667
1722050961.9955,2024-07-26 20:29:21.995,15,false,0.0,4270.385, 4377.18, 4139.615, 4226.667, 4344.872
1722050962.0034,2024-07-26 20:29:22.003,16,false,0.0,4263.205, 4370.513, 4137.564, 4208.718, 4334.231
1722050962.0112,2024-07-26 20:29:22.011,17,false,0.0,4245.0, 4356.282, 4127.436, 4186.795, 4318.718
1722050962.019,2024-07-26 20:29:22.019,18,false,0.0,4242.82, 4360.769, 4121.923, 4184.744, 4316.282
1722050962.0268,2024-07-26 20:29:22.026,19,false,0.0,4250.0, 4372.82, 4125.128, 4182.949, 4320.513
1722050962.0346,2024-07-26 20:29:22.034,20,false,0.0,4248.59, 4355.897, 4120.128, 4175.769, 4315.128
1722050962.0424,2024-07-26 20:29:22.042,21,false,0.0,4250.128, 4339.103, 4112.692, 4176.667, 4306.667
1722050962.0502,2024-07-26 20:29:22.050,22,false,0.0,4264.615, 4360.256, 4123.333, 4182.18, 4316.41
1722050962.058,2024-07-26 20:29:22.058,23,false,0.0,4276.923, 4372.051, 4136.539, 4190.769, 4336.026
1722050962.0659,2024-07-26 20:29:22.065,24,false,0.0,4273.461, 4351.795, 4133.205, 4201.026, 4336.41
1722050962.0737,2024-07-26 20:29:22.073,25,false,0.0,4266.923, 4356.667, 4135.641, 4208.974, 4330.385
1722050962.0815,2024-07-26 20:29:22.081,26,false,0.0,4268.846, 4382.436, 4147.564, 4219.872, 4332.308
1722050962.0893,2024-07-26 20:29:22.089,27,false,0.0,4267.051, 4375.641, 4140.128, 4221.667, 4314.487
1722050962.0971,2024-07-26 20:29:22.097,28,false,0.0,4264.359, 4362.564, 4128.077, 4206.154, 4294.103
1722050962.1049,2024-07-26 20:29:22.104,29,false,0.0,4269.615, 4371.795, 4132.692, 4195.256, 4305.128
1722050962.1127,2024-07-26 20:29:22.112,30,false,0.0,4261.667, 4368.333, 4125.385, 4186.41, 4303.846
1722050962.1205,2024-07-26 20:29:22.120,31,false,0.0,4243.59, 4353.974, 4110.641, 4173.718, 4281.539
1722050962.1284,2024-07-26 20:29:22.128,32,false,0.0,4250.641, 4358.846, 4121.539, 4187.82, 4293.205
1722050962.1362,2024-07-26 20:29:22.136,33,false,0.0,4267.692, 4363.59, 4135.256, 4215.897, 4315.0
1722050962.144,2024-07-26 20:29:22.144,34,false,0.0,4263.205, 4359.487, 4133.461, 4217.051, 4306.41
1722050962.1518,2024-07-26 20:29:22.151,35,false,0.0,4253.461, 4367.308, 4136.667, 4212.692, 4300.897
1722050962.1596,2024-07-26 20:29:22.159,36,false,0.0,4252.564, 4372.692, 4134.615, 4218.59, 4304.487
1722050962.1674,2024-07-26 20:29:22.167,37,false,0.0,4253.205, 4360.769, 4122.692, 4211.795, 4300.769
1722050962.1752,2024-07-26 20:29:22.175,38,false,0.0,4252.051, 4353.333, 4124.359, 4200.513, 4299.615
1722050962.183,2024-07-26 20:29:22.183,39,false,0.0,4238.077, 4357.436, 4129.231, 4192.436, 4288.333
1722050962.1909,2024-07-26 20:29:22.190,40,false,0.0,4221.41, 4359.744, 4127.82, 4181.154, 4274.615
1722050962.1987,2024-07-26 20:29:22.198,41,false,0.0,4230.897, 4357.564, 4136.154, 4190.256, 4292.18
1722050962.2065,2024-07-26 20:29:22.206,42,false,0.0,4243.333, 4346.667, 4132.308, 4213.077, 4305.0
1722050962.2143,2024-07-26 20:29:22.214,43,false,0.0,4228.718, 4335.0, 4102.949, 4211.539, 4285.513
1722050962.2221,2024-07-26 20:29:22.222,44,false,0.0,4221.795, 4351.539, 4091.026, 4203.974, 4279.744
1722050962.2299,2024-07-26 20:29:22.229,45,false,0.0,4240.897, 4381.282, 4104.615, 4211.667, 4289.744
1722050962.2377,2024-07-26 20:29:22.237,46,false,0.0,4251.026, 4372.18, 4108.205, 4209.872, 4285.513
1722050962.2455,2024-07-26 20:29:22.245,47,false,0.0,4246.795, 4348.333, 4107.18, 4198.333, 4282.18
1722050962.2534,2024-07-26 20:29:22.253,48,false,0.0,4248.846, 4367.18, 4120.641, 4194.359, 4285.256
1722050962.2612,2024-07-26 20:29:22.261,49,false,0.0,4250.641, 4383.333, 4131.41, 4192.308, 4288.333
1722050962.269,2024-07-26 20:29:22.269,50,false,0.0,4246.539, 4347.308, 4124.231, 4194.103, 4297.308
1722050962.2768,2024-07-26 20:29:22.276,51,false,0.0,4243.974, 4321.795, 4112.564, 4198.461, 4294.872
1722050962.2846,2024-07-26 20:29:22.284,52,false,0.0,4241.282, 4339.231, 4109.231, 4196.282, 4280.0
1722050962.2924,2024-07-26 20:29:22.292,53,false,0.0,4239.744, 4353.333, 4111.154, 4200.385, 4280.897
1722050962.3002,2024-07-26 20:29:22.300,54,false,0.0,4242.436, 4363.59, 4114.615, 4211.026, 4285.641
1722050962.308,2024-07-26 20:29:22.308,55,false,0.0,4237.308, 4372.051, 4116.026, 4205.769, 4277.692
1722050962.3159,2024-07-26 20:29:22.315,56,false,0.0,4226.41, 4353.846, 4110.385, 4196.282, 4277.564
1722050962.3237,2024-07-26 20:29:22.323,57,false,0.0,4234.103, 4352.18, 4112.051, 4205.128, 4289.615
1722050962.3315,2024-07-26 20:29:22.331,58,false,0.0,4250.769, 4381.539, 4122.564, 4213.077, 4296.539
1722050962.3393,2024-07-26 20:29:22.339,59,false,0.0,4239.103, 4368.846, 4107.692, 4198.59, 4283.974
1722050962.3471,2024-07-26 20:29:22.347,60,false,0.0,4208.205, 4331.923, 4076.41, 4181.923, 4256.539
1722050962.3549,2024-07-26 20:29:22.354,61,false,0.0,4199.359, 4342.308, 4076.282, 4187.308, 4249.359
1722050962.3627,2024-07-26 20:29:22.362,62,false,0.0,4208.59, 4360.769, 4089.359, 4201.795, 4265.897
1722050962.3705,2024-07-26 20:29:22.370,63,false,0.0,4211.795, 4352.18, 4086.539, 4208.205, 4269.872
1722050962.3784,2024-07-26 20:29:22.378,64,false,0.0,4215.385, 4349.359, 4098.974, 4216.026, 4271.795
1722050962.3862,2024-07-26 20:29:22.386,65,false,0.0,4219.231, 4347.564, 4114.487, 4219.872, 4283.718
1722050962.394,2024-07-26 20:29:22.394,66,false,0.0,4206.154, 4340.769, 4094.487, 4201.282, 4272.436
1722050962.4018,2024-07-26 20:29:22.401,67,false,0.0,4188.846, 4345.641, 4077.308, 4185.128, 4255.256
1722050962.4096,2024-07-26 20:29:22.409,68,false,0.0,4187.051, 4340.256, 4085.769, 4195.128, 4263.333
1722050962.4174,2024-07-26 20:29:22.417,69,false,0.0,4187.82, 4321.026, 4081.667, 4201.539, 4262.18
1722050962.4252,2024-07-26 20:29:22.425,70,false,0.0,4185.513, 4316.026, 4075.385, 4196.41, 4250.769
1722050962.433,2024-07-26 20:29:22.433,71,false,0.0,4195.385, 4324.103, 4089.231, 4203.461, 4261.41
1722050962.4409,2024-07-26 20:29:22.440,72,false,0.0,4207.308, 4345.641, 4092.564, 4203.974, 4262.564
1722050962.4487,2024-07-26 20:29:22.448,73,false,0.0,4200.385, 4366.41, 4080.128, 4181.923, 4241.282
1722050962.4565,2024-07-26 20:29:22.456,74,false,0.0,4188.205, 4346.795, 4074.231, 4171.154, 4236.282
1722050962.4643,2024-07-26 20:29:22.464,75,false,0.0,4188.718, 4322.308, 4073.077, 4178.59, 4239.744
1722050962.4721,2024-07-26 20:29:22.472,76,false,0.0,4193.718, 4339.103, 4080.128, 4184.103, 4239.359
1722050962.4799,2024-07-26 20:29:22.479,77,false,0.0,4201.795, 4349.359, 4097.051, 4196.026, 4256.539
1722050962.4877,2024-07-26 20:29:22.487,78,false,0.0,4217.051, 4340.513, 4101.026, 4209.359, 4270.128
1722050962.4955,2024-07-26 20:29:22.495,79,false,0.0,4216.539, 4351.795, 4087.949, 4197.051, 4252.308
1722050962.5034,2024-07-26 20:29:22.503,80,false,0.0,4195.897, 4355.641, 4077.308, 4178.077, 4232.692
1722050962.5112,2024-07-26 20:29:22.511,81,false,0.0,4192.308, 4342.82, 4081.795, 4184.615, 4233.718
1722050962.519,2024-07-26 20:29:22.519,82,false,0.0,4209.231, 4348.974, 4097.308, 4197.308, 4240.0
1722050962.5268,2024-07-26 20:29:22.526,83,false,0.0,4216.282, 4351.539, 4100.897, 4197.308, 4240.385
1722050962.5346,2024-07-26 20:29:22.534,84,false,0.0,4220.0, 4348.846, 4094.615, 4201.539, 4237.82
1722050962.5424,2024-07-26 20:29:22.542,85,false,0.0,4225.513, 4369.615, 4105.897, 4205.641, 4235.897
1722050962.5502,2024-07-26 20:29:22.550,86,false,0.0,4210.769, 4364.872, 4113.718, 4188.333, 4227.18
1722050962.558,2024-07-26 20:29:22.558,87,false,0.0,4197.564, 4329.487, 4094.615, 4170.256, 4211.667
1722050962.5659,2024-07-26 20:29:22.565,88,false,0.0,4209.744, 4332.82, 4088.59, 4175.769, 4212.949
1722050962.5737,2024-07-26 20:29:22.573,89,false,0.0,4208.077, 4346.539, 4098.59, 4183.846, 4224.615
1722050962.5815,2024-07-26 20:29:22.581,90,false,0.0,4187.564, 4337.051, 4084.615, 4183.974, 4216.41
1722050962.5893,2024-07-26 20:29:22.589,91,false,0.0,4192.051, 4351.923, 4072.564, 4192.82, 4206.923
1722050962.5971,2024-07-26 20:29:22.597,92,false,0.0,4203.461, 4356.795, 4085.769, 4199.615, 4215.256
1722050962.6049,2024-07-26 20:29:22.604,93,false,0.0,4195.256, 4317.564, 4086.923, 4192.564, 4213.846
1722050962.6127,2024-07-26 20:29:22.612,94,false,0.0,4199.231, 4320.0, 4082.308, 4192.436, 4208.59
1722050962.6205,2024-07-26 20:29:22.620,95,false,0.0,4210.256, 4361.539, 4099.231, 4197.82, 4223.461
1722050962.6284,2024-07-26 20:29:22.628,96,false,0.0,4195.641, 4354.615, 4106.282, 4192.051, 4226.282
1722050962.6362,2024-07-26 20:29:22.636,97,false,0.0,4180.897, 4331.539, 4094.359, 4192.18, 4205.769
1722050962.644,2024-07-26 20:29:22.644,98,false,0.0,4187.436, 4337.692, 4093.205, 4204.872, 4206.795
1722050962.6518,2024-07-26 20:29:22.651,99,false,0.0,4195.641, 4342.051, 4093.718, 4209.103, 4229.103
1722050962.6596,2024-07-26 20:29:22.659,100,false,0.0,4201.923, 4347.436, 4085.769, 4203.461, 4233.59
1722050962.6674,2024-07-26 20:29:22.667,101,false,0.0,4204.231, 4361.282, 4088.59, 4194.103, 4225.897
1722050962.6752,2024-07-26 20:29:22.675,102,false,0.0,4195.897, 4361.923, 4096.923, 4182.18, 4225.385
1722050962.683,2024-07-26 20:29:22.683,103,false,0.0,4199.487, 4363.974, 4101.795, 4186.923, 4229.744
1722050962.6909,2024-07-26 20:29:22.690,104,false,0.0,4218.974, 4371.026, 4114.615, 4210.256, 4241.539
1722050962.6987,2024-07-26 20:29:22.698,105,false,0.0,4220.385, 4362.18, 4119.231, 4221.923, 4253.974
1722050962.7065,2024-07-26 20:29:22.706,106,false,0.0,4207.692, 4357.308, 4102.18, 4213.333, 4248.333
1722050962.7143,2024-07-26 20:29:22.714,107,false,0.0,4210.128, 4367.564, 4090.641, 4203.461, 4240.641
1722050962.7221,2024-07-26 20:29:22.722,108,false,0.0,4215.769, 4365.513, 4091.923, 4199.744, 4247.949
1722050962.7299,2024-07-26 20:29:22.729,109,false,0.0,4207.436, 4346.539, 4084.487, 4195.641, 4246.154
1722050962.7377,2024-07-26 20:29:22.737,110,false,0.0,4204.231, 4333.846, 4081.154, 4193.077, 4235.513
1722050962.7455,2024-07-26 20:29:22.745,111,false,0.0,4220.256, 4349.487, 4099.103, 4198.205, 4246.923
1722050962.7534,2024-07-26 20:29:22.753,112,false,0.0,4233.205, 4375.513, 4111.795, 4200.128, 4258.974
1722050962.7612,2024-07-26 20:29:22.761,113,false,0.0,4223.077, 4361.795, 4103.59, 4185.897, 4244.103
1722050962.769,2024-07-26 20:29:22.769,114,false,0.0,4207.18, 4330.897, 4097.949, 4174.615, 4236.154
1722050962.7768,2024-07-26 20:29:22.776,115,false,0.0,4207.564, 4338.59, 4102.308, 4182.436, 4248.077
1722050962.7846,2024-07-26 20:29:22.784,116,false,0.0,4217.308, 4354.615, 4107.18, 4190.641, 4250.0
1722050962.7924,2024-07-26 20:29:22.792,117,false,0.0,4226.539, 4354.231, 4118.333, 4193.077, 4250.385
1722050962.8002,2024-07-26 20:29:22.800,118,false,0.0,4231.795, 4363.846, 4126.795, 4193.974, 4259.872
1722050962.808,2024-07-26 20:29:22.808,119,false,0.0,4225.256, 4359.487, 4112.82, 4179.744, 4255.641
1722050962.8159,2024-07-26 20:29:22.815,120,false,0.0,4220.0, 4337.564, 4099.359, 4167.82, 4249.872
1722050962.8237,2024-07-26 20:29:22.823,121,false,0.0,4232.308, 4351.667, 4109.359, 4182.82, 4261.154
1722050962.8315,2024-07-26 20:29:22.831,122,false,0.0,4242.051, 4372.18, 4116.795, 4190.128, 4264.872
1722050962.8393,2024-07-26 20:29:22.839,123,false,0.0,4239.231, 4355.641, 4115.0, 4174.487, 4261.282
1722050962.8471,2024-07-26 20:29:22.847,124,false,0.0,4241.923, 4353.205, 4125.897, 4175.256, 4272.18
1722050962.8549,2024-07-26 20:29:22.854,125,false,0.0,4244.231, 4368.461, 4130.128, 4185.385, 4280.385
1722050962.8627,2024-07-26 20:29:22.862,126,false,0.0,4251.154, 4356.795, 4108.333, 4172.18, 4285.385
1722050962.8705,2024-07-26 20:29:22.870,127,false,0.0,4288.077, 4348.974, 4092.821, 4150.641, 4314.487
1722050962.8784,2024-07-26 20:29:22.878,0,false,0.0,4328.718, 4357.564, 4098.077, 4140.256, 4351.41
1722050962.8862,2024-07-26 20:29:22.886,1,false,0.0,4348.333, 4345.641, 4102.051, 4142.436, 4376.282
1722050962.894,2024-07-26 20:29:22.894,2,false,0.0,4386.282, 4339.872, 4101.282, 4156.282, 4409.359
1722050962.9018,2024-07-26 20:29:22.901,3,false,0.0,4441.795, 4364.744, 4102.18, 4165.0, 4449.487
1722050962.9096,2024-07-26 20:29:22.909,4,false,0.0,4465.0, 4383.846, 4105.385, 4164.103, 4473.077
1722050962.9174,2024-07-26 20:29:22.917,5,false,0.0,4474.103, 4392.051, 4116.282, 4171.154, 4486.667
1722050962.9252,2024-07-26 20:29:22.925,6,false,0.0,4504.359, 4395.385, 4128.205, 4179.359, 4499.615
1722050962.933,2024-07-26 20:29:22.933,7,false,0.0,4521.923, 4373.974, 4124.487, 4173.461, 4499.744
1722050962.9409,2024-07-26 20:29:22.940,8,false,0.0,4510.513, 4352.436, 4111.795, 4161.41, 4488.205
1722050962.9487,2024-07-26 20:29:22.948,9,false,0.0,4509.103, 4365.897, 4110.769, 4158.718, 4486.026
1722050962.9565,2024-07-26 20:29:22.956,10,false,0.0,4526.026, 4396.41, 4124.359, 4174.359, 4494.872
1722050962.9643,2024-07-26 20:29:22.964,11,false,0.0,4529.615, 4418.846, 4133.077, 4189.231, 4490.128
1722050962.9721,2024-07-26 20:29:22.972,12,false,0.0,4509.103, 4413.333, 4120.256, 4175.769, 4462.051
1722050962.9799,2024-07-26 20:29:22.979,13,false,0.0,4482.051, 4383.205, 4105.385, 4159.872, 4434.744
1722050962.9877,2024-07-26 20:29:22.987,14,false,0.0,4471.923, 4382.949, 4112.436, 4174.103, 4430.128
1722050962.9955,2024-07-26 20:29:22.995,15,false,0.0,4478.974, 4407.564, 4117.949, 4187.051, 4431.923
1722050963.0034,2024-07-26 20:29:23.003,16,false,0.0,4473.718, 4388.718, 4101.795, 4173.205, 4413.718
1722050963.0112,2024-07-26 20:29:23.011,17,false,0.0,4451.41, 4359.231, 4093.718, 4160.385, 4386.154
1722050963.019,2024-07-26 20:29:23.019,18,false,0.0,4439.103, 4379.359, 4104.872, 4164.615, 4377.308
1722050963.0268,2024-07-26 20:29:23.026,19,false,0.0,4434.231, 4397.18, 4111.154, 4173.974, 4378.077
1722050963.0346,2024-07-26 20:29:23.034,20,false,0.0,4418.59, 4387.18, 4112.308, 4182.308, 4363.846
1722050963.0424,2024-07-26 20:29:23.042,21,false,0.0,4400.897, 4390.128, 4113.205, 4182.564, 4340.897
1722050963.0502,2024-07-26 20:29:23.050,22,false,0.0,4385.897, 4385.128, 4101.667, 4172.051, 4321.923
1722050963.058,2024-07-26 20:29:23.058,23,false,0.0,4372.82, 4369.744, 4091.154, 4167.564, 4311.282
1722050963.0659,2024-07-26 20:29:23.065,24,false,0.0,4371.026, 4388.846, 4098.59, 4177.82, 4316.154
1722050963.0737,2024-07-26 20:29:23.073,25,false,0.0,4366.539, 4398.59, 4102.82, 4184.744, 4320.0
1722050963.0815,2024-07-26 20:29:23.081,26,false,0.0,4344.615, 4366.282, 4095.128, 4174.359, 4298.974
1722050963.0893,2024-07-26 20:29:23.089,27,false,0.0,4324.872, 4362.308, 4095.769, 4159.231, 4271.923
1722050963.0971,2024-07-26 20:29:23.097,28,false,0.0,4315.256, 4388.077, 4105.897, 4156.41, 4263.846
1722050963.1049,2024-07-26 20:29:23.104,29,false,0.0,4306.923, 4387.308, 4114.744, 4166.539, 4266.026
1722050963.1127,2024-07-26 20:29:23.112,30,false,0.0,4302.82, 4381.41, 4118.718, 4177.051, 4267.82
1722050963.1205,2024-07-26 20:29:23.120,31,false,0.0,4295.256, 4384.487, 4111.539, 4176.154, 4264.103
1722050963.1284,2024-07-26 20:29:23.128,32,false,0.0,4280.385, 4375.385, 4104.359, 4169.103, 4252.949
1722050963.1362,2024-07-26 20:29:23.136,33,false,0.0,4278.974, 4371.41, 4113.205, 4169.615, 4249.615
1722050963.144,2024-07-26 20:29:23.144,34,false,0.0,4287.18, 4368.461, 4117.82, 4174.872, 4255.769
1722050963.1518,2024-07-26 20:29:23.151,35,false,0.0,4280.897, 4345.256, 4100.0, 4169.744, 4248.974
1722050963.1596,2024-07-26 20:29:23.159,36,false,0.0,4266.795, 4336.282, 4084.872, 4159.359, 4232.564
1722050963.1674,2024-07-26 20:29:23.167,37,false,0.0,4261.282, 4357.308, 4093.718, 4165.128, 4234.231
1722050963.1752,2024-07-26 20:29:23.175,38,false,0.0,4265.385, 4374.615, 4109.872, 4185.385, 4251.026
1722050963.183,2024-07-26 20:29:23.183,39,false,0.0,4268.205, 4377.051, 4107.692, 4194.359, 4251.795
1722050963.1909,2024-07-26 20:29:23.190,40,false,0.0,4257.564, 4371.539, 4091.539, 4187.18, 4232.82
1722050963.1987,2024-07-26 20:29:23.198,41,false,0.0,4243.974, 4366.41, 4092.308, 4182.051, 4221.026
1722050963.2065,2024-07-26 20:29:23.206,42,false,0.0,4244.103, 4366.667, 4112.18, 4178.333, 4225.769
1722050963.2143,2024-07-26 20:29:23.214,43,false,0.0,4251.795, 4358.974, 4122.18, 4171.667, 4234.615
1722050963.2221,2024-07-26 20:29:23.222,44,false,0.0,4262.308, 4356.282, 4122.308, 4172.692, 4239.744
1722050963.2299,2024-07-26 20:29:23.229,45,false,0.0,4269.615, 4376.539, 4122.82, 4171.154, 4232.692
1722050963.2377,2024-07-26 20:29:23.237,46,false,0.0,4258.205, 4378.461, 4112.564, 4159.744, 4215.641
1722050963.2455,2024-07-26 20:29:23.245,47,false,0.0,4247.564, 4355.128, 4104.872, 4166.667, 4214.359
1722050963.2534,2024-07-26 20:29:23.253,48,false,0.0,4258.718, 4361.667, 4116.795, 4188.077, 4227.82
1722050963.2612,2024-07-26 20:29:23.261,49,false,0.0,4266.282, 4382.18, 4121.282, 4189.231, 4223.846
1722050963.269,2024-07-26 20:29:23.269,50,false,0.0,4260.385, 4373.461, 4112.436, 4183.974, 4210.0
1722050963.2768,2024-07-26 20:29:23.276,51,false,0.0,4257.82, 4368.333, 4113.333, 4188.718, 4208.077
1722050963.2846,2024-07-26 20:29:23.284,52,false,0.0,4254.487, 4380.769, 4114.359, 4183.461, 4204.487
1722050963.2924,2024-07-26 20:29:23.292,53,false,0.0,4254.744, 4381.795, 4111.667, 4176.41, 4197.564
1722050963.3002,2024-07-26 20:29:23.300,54,false,0.0,4258.077, 4381.026, 4117.436, 4179.231, 4201.923
1722050963.308,2024-07-26 20:29:23.308,55,false,0.0,4241.795, 4382.436, 4113.846, 4172.436, 4204.359
1722050963.3159,2024-07-26 20:29:23.315,56,false,0.0,4229.872, 4370.128, 4104.231, 4166.539, 4200.769
1722050963.3237,2024-07-26 20:29:23.323,57,false,0.0,4243.205, 4363.077, 4114.359, 4176.923, 4199.872
1722050963.3315,2024-07-26 20:29:23.331,58,false,0.0,4238.59, 4363.333, 4121.154, 4179.487, 4188.333
1722050963.3393,2024-07-26 20:29:23.339,59,false,0.0,4221.667, 4356.282, 4112.949, 4174.231, 4175.0
1722050963.3471,2024-07-26 20:29:23.347,60,false,0.0,4231.539, 4370.256, 4121.667, 4178.846, 4184.487
1722050963.3549,2024-07-26 20:29:23.354,61,false,0.0,4234.487, 4396.539, 4129.872, 4181.282, 4193.205
1722050963.3627,2024-07-26 20:29:23.362,62,false,0.0,4218.846, 4383.205, 4108.974, 4179.872, 4180.385
1722050963.3705,2024-07-26 20:29:23.370,63,false,0.0,4222.18, 4361.026, 4096.154, 4181.41, 4170.385
1722050963.3784,2024-07-26 20:29:23.378,64,false,0.0,4228.205, 4378.846, 4109.487, 4175.0, 4171.154
1722050963.3862,2024-07-26 20:29:23.386,65,false,0.0,4219.359, 4392.308, 4118.205, 4167.949, 4168.333
1722050963.394,2024-07-26 20:29:23.394,66,false,0.0,4210.128, 4373.205, 4111.282, 4168.077, 4157.692
1722050963.4018,2024-07-26 20:29:23.401,67,false,0.0,4192.436, 4359.744, 4096.667, 4162.18, 4141.282
1722050963.4096,2024-07-26 20:29:23.409,68,false,0.0,4184.872, 4359.872, 4088.974, 4163.333, 4137.051
1722050963.4174,2024-07-26 20:29:23.417,69,false,0.0,4215.0, 4361.41, 4106.282, 4183.333, 4159.872
1722050963.4252,2024-07-26 20:29:23.425,70,false,0.0,4237.949, 4373.974, 4125.128, 4191.282, 4185.385
1722050963.433,2024-07-26 20:29:23.433,71,false,0.0,4225.513, 4384.487, 4114.103, 4177.436, 4191.154
1722050963.4409,2024-07-26 20:29:23.440,72,false,0.0,4213.718, 4374.487, 4100.513, 4170.385, 4186.41
1722050963.4487,2024-07-26 20:29:23.448,73,false,0.0,4213.461, 4358.333, 4107.051, 4178.077, 4181.923
1722050963.4565,2024-07-26 20:29:23.456,74,false,0.0,4212.564, 4340.769, 4108.077, 4183.077, 4182.436
1722050963.4643,2024-07-26 20:29:23.464,75,false,0.0,4211.795, 4326.154, 4098.461, 4178.974, 4186.795
1722050963.4721,2024-07-26 20:29:23.472,76,false,0.0,4209.359, 4342.949, 4097.949, 4178.718, 4185.128
1722050963.4799,2024-07-26 20:29:23.479,77,false,0.0,4211.923, 4373.461, 4103.333, 4188.205, 4182.051
1722050963.4877,2024-07-26 20:29:23.487,78,false,0.0,4222.18, 4375.897, 4109.487, 4195.641, 4187.564
1722050963.4955,2024-07-26 20:29:23.495,79,false,0.0,4222.436, 4375.128, 4115.641, 4196.667, 4188.974
1722050963.5034,2024-07-26 20:29:23.503,80,false,0.0,4211.795, 4386.923, 4103.461, 4188.846, 4178.205
1722050963.5112,2024-07-26 20:29:23.511,81,false,0.0,4207.051, 4373.461, 4080.0, 4170.897, 4172.82
1722050963.519,2024-07-26 20:29:23.519,82,false,0.0,4215.256, 4357.949, 4082.692, 4168.974, 4181.154
1722050963.5268,2024-07-26 20:29:23.526,83,false,0.0,4229.615, 4379.744, 4106.667, 4190.0, 4190.769
1722050963.5346,2024-07-26 20:29:23.534,84,false,0.0,4231.539, 4385.385, 4115.897, 4195.128, 4195.513
1722050963.5424,2024-07-26 20:29:23.542,85,false,0.0,4220.0, 4353.974, 4110.256, 4180.897, 4196.154
1722050963.5502,2024-07-26 20:29:23.550,86,false,0.0,4214.872, 4347.308, 4108.59, 4176.923, 4192.436
1722050963.558,2024-07-26 20:29:23.558,87,false,0.0,4214.487, 4365.641, 4111.539, 4181.282, 4190.769
1722050963.5659,2024-07-26 20:29:23.565,88,false,0.0,4207.308, 4370.897, 4110.256, 4185.641, 4188.461
1722050963.5737,2024-07-26 20:29:23.573,89,false,0.0,4204.615, 4375.385, 4103.333, 4190.256, 4176.282
1722050963.5815,2024-07-26 20:29:23.581,90,false,0.0,4215.256, 4379.744, 4106.667, 4191.154, 4175.256
1722050963.5893,2024-07-26 20:29:23.589,91,false,0.0,4227.949, 4370.385, 4117.564, 4191.026, 4190.128
1722050963.5971,2024-07-26 20:29:23.597,92,false,0.0,4222.82, 4368.974, 4105.769, 4178.461, 4180.897
1722050963.6049,2024-07-26 20:29:23.604,93,false,0.0,4202.949, 4378.205, 4086.667, 4156.539, 4162.82
1722050963.6127,2024-07-26 20:29:23.612,94,false,0.0,4202.18, 4373.333, 4096.282, 4163.333, 4180.513
1722050963.6205,2024-07-26 20:29:23.620,95,false,0.0,4218.718, 4359.359, 4106.026, 4183.846, 4194.231
1722050963.6284,2024-07-26 20:29:23.628,96,false,0.0,4218.205, 4352.18, 4100.897, 4178.077, 4179.872
1722050963.6362,2024-07-26 20:29:23.636,97,false,0.0,4209.487, 4353.846, 4111.923, 4177.308, 4186.41
1722050963.644,2024-07-26 20:29:23.644,98,false,0.0,4210.256, 4364.744, 4118.205, 4190.385, 4197.949
1722050963.6518,2024-07-26 20:29:23.651,99,false,0.0,4205.641, 4372.308, 4099.103, 4176.41, 4177.949
1722050963.6596,2024-07-26 20:29:23.659,100,false,0.0,4196.282, 4364.487, 4093.077, 4158.59, 4167.18
1722050963.6674,2024-07-26 20:29:23.667,101,false,0.0,4194.615, 4359.744, 4103.077, 4168.59, 4176.41
1722050963.6752,2024-07-26 20:29:23.675,102,false,0.0,4201.923, 4373.846, 4114.487, 4181.667, 4181.539
1722050963.683,2024-07-26 20:29:23.683,103,false,0.0,4214.872, 4381.154, 4134.487, 4185.128, 4193.718
1722050963.6909,2024-07-26 20:29:23.690,104,false,0.0,4212.308, 4362.308, 4130.128, 4181.539, 4193.205
1722050963.6987,2024-07-26 20:29:23.698,105,false,0.0,4195.256, 4345.513, 4099.359, 4173.461, 4165.769
1722050963.7065,2024-07-26 20:29:23.706,106,false,0.0,4198.333, 4348.077, 4096.795, 4172.82, 4162.436
1722050963.7143,2024-07-26 20:29:23.714,107,false,0.0,4210.385, 4351.154, 4103.974, 4171.154, 4184.744
1722050963.7221,2024-07-26 20:29:23.722,108,false,0.0,4214.744, 4357.436, 4093.974, 4171.539, 4196.282
1722050963.7299,2024-07-26 20:29:23.729,109,false,0.0,4234.359, 4377.308, 4106.282, 4188.718, 4208.974
1722050963.7377,2024-07-26 20:29:23.737,110,false,0.0,4241.026, 4381.795, 4118.846, 4187.564, 4214.103
1722050963.7455,2024-07-26 20:29:23.745,111,false,0.0,4208.718, 4360.128, 4098.846, 4164.744, 4199.103
1722050963.7534,2024-07-26 20:29:23.753,112,false,0.0,4202.18, 4346.667, 4097.949, 4174.744, 4206.154
1722050963.7612,2024-07-26 20:29:23.761,113,false,0.0,4234.615, 4354.359, 4117.564, 4197.436, 4235.256
1722050963.769,2024-07-26 20:29:23.769,114,false,0.0,4244.103, 4361.923, 4112.949, 4194.359, 4248.846
1722050963.7768,2024-07-26 20:29:23.776,115,false,0.0,4237.18, 4360.513, 4108.333, 4198.205, 4254.487
1722050963.7846,2024-07-26 20:29:23.784,116,false,0.0,4240.641, 4363.718, 4115.769, 4205.513, 4253.974
1722050963.7924,2024-07-26 20:29:23.792,117,false,0.0,4237.308, 4373.077, 4113.846, 4188.846, 4245.128
1722050963.8002,2024-07-26 20:29:23.800,118,false,0.0,4233.205, 4369.103, 4118.077, 4180.128, 4252.692
1722050963.808,2024-07-26 20:29:23.808,119,false,0.0,4235.897, 4362.436, 4123.974, 4187.564, 4260.513
1722050963.8159,2024-07-26 20:29:23.815,120,false,0.0,4228.205, 4377.051, 4114.872, 4184.744, 4244.103
1722050963.8237,2024-07-26 20:29:23.823,121,false,0.0,4214.103, 4381.282, 4115.769, 4182.18, 4232.18
1722050963.8315,2024-07-26 20:29:23.831,122,false,0.0,4202.692, 4355.385, 4121.667, 4182.949, 4231.41
1722050963.8393,2024-07-26 20:29:23.839,123,false,0.0,4193.59, 4345.0, 4109.872, 4175.769, 4226.795
1722050963.8471,2024-07-26 20:29:23.847,124,false,0.0,4197.18, 4357.564, 4109.103, 4176.154, 4236.667
1722050963.8549,2024-07-26 20:29:23.854,125,false,0.0,4208.846, 4361.539, 4126.026, 4189.744, 4258.718
1722050963.8627,2024-07-26 20:29:23.862,126,false,0.0,4217.949, 4362.82, 4130.0, 4203.333, 4268.333
1722050963.8705,2024-07-26 20:29:23.870,127,false,0.0,4225.256, 4362.82, 4121.41, 4208.461, 4267.308
1722050963.8784,2024-07-26 20:29:23.878,0,false,0.0,4220.128, 4356.539, 4110.128, 4193.846, 4257.308
1722050963.8862,2024-07-26 20:29:23.886,1,false,0.0,4209.359, 4362.692, 4103.59, 4175.385, 4248.205
1722050963.894,2024-07-26 20:29:23.894,2,false,0.0,4219.487, 4367.564, 4116.667, 4182.051, 4260.769
1722050963.9018,2024-07-26 20:29:23.901,3,false,0.0,4231.154, 4362.18, 4127.564, 4191.154, 4272.051
1722050963.9096,2024-07-26 20:29:23.909,4,false,0.0,4218.333, 4379.744, 4114.872, 4179.231, 4260.0
1722050963.9174,2024-07-26 20:29:23.917,5,false,0.0,4208.333, 4393.077, 4104.615, 4174.359, 4252.692
1722050963.9252,2024-07-26 20:29:23.925,6,false,0.0,4218.461, 4365.769, 4105.385, 4186.154, 4260.128
1722050963.933,2024-07-26 20:29:23.933,7,false,0.0,4227.564, 4354.359, 4102.564, 4191.41, 4262.82
1722050963.9409,2024-07-26 20:29:23.940,8,false,0.0,4226.154, 4373.846, 4106.282, 4188.59, 4262.18
1722050963.9487,2024-07-26 20:29:23.948,9,false,0.0,4220.897, 4367.949, 4114.359, 4188.718, 4261.41
1722050963.9565,2024-07-26 20:29:23.956,10,false,0.0,4220.641, 4355.769, 4111.795, 4191.667, 4259.487
1722050963.9643,2024-07-26 20:29:23.964,11,false,0.0,4224.615, 4365.641, 4108.974, 4184.615, 4260.513
1722050963.9721,2024-07-26 20:29:23.972,12,false,0.0,4215.256, 4356.923, 4105.769, 4161.154, 4251.923
1722050963.9799,2024-07-26 20:29:23.979,13,false,0.0,4198.205, 4339.359, 4095.641, 4149.872, 4233.974
1722050963.9877,2024-07-26 20:29:23.987,14,false,0.0,4199.872, 4355.769, 4097.949, 4167.692, 4232.949
1722050963.9955,2024-07-26 20:29:23.995,15,false,0.0,4208.461, 4374.487, 4110.641, 4178.718, 4245.128
1722050964.0034,2024-07-26 20:29:24.003,16,false,0.0,4200.897, 4360.128, 4108.718, 4172.564, 4247.949
1722050964.0112,2024-07-26 20:29:24.011,17,false,0.0,4192.692, 4340.641, 4101.539, 4177.692, 4246.154
1722050964.019,2024-07-26 20:29:24.019,18,false,0.0,4202.051, 4348.846, 4108.333, 4187.051, 4249.744
1722050964.0268,2024-07-26 20:29:24.026,19,false,0.0,4217.18, 4371.923, 4119.615, 4185.385, 4256.026
1722050964.0346,2024-07-26 20:29:24.034,20,false,0.0,4216.282, 4367.436, 4114.872, 4181.667, 4257.051
1722050964.0424,2024-07-26 20:29:24.042,21,false,0.0,4203.205, 4345.513, 4095.897, 4174.359, 4248.718
1722050964.0502,2024-07-26 20:29:24.050,22,false,0.0,4207.051, 4357.949, 4092.564, 4167.82, 4243.461
1722050964.058,2024-07-26 20:29:24.058,23,false,0.0,4222.18, 4375.0, 4104.359, 4169.359, 4242.82
1722050964.0659,2024-07-26 20:29:24.065,24,false,0.0,4214.359, 4350.641, 4093.205, 4160.897, 4230.641
1722050964.0737,2024-07-26 20:29:24.073,25,false,0.0,4203.974, 4341.667, 4073.974, 4151.282, 4225.385
1722050964.0815,2024-07-26 20:29:24.081,26,false,0.0,4219.487, 4368.461, 4085.769, 4164.615, 4245.641
1722050964.0893,2024-07-26 20:29:24.089,27,false,0.0,4225.641, 4367.051, 4101.539, 4172.692, 4257.949
1722050964.0971,2024-07-26 20:29:24.097,28,false,0.0,4215.385, 4357.051, 4101.923, 4162.692, 4255.641
1722050964.1049,2024-07-26 20:29:24.104,29,false,0.0,4228.205, 4380.513, 4114.487, 4171.154, 4267.18
1722050964.1127,2024-07-26 20:29:24.112,30,false,0.0,4244.103, 4382.949, 4125.385, 4187.564, 4270.769
1722050964.1205,2024-07-26 20:29:24.120,31,false,0.0,4234.103, 4356.154, 4111.923, 4180.513, 4252.436
1722050964.1284,2024-07-26 20:29:24.128,32,false,0.0,4230.128, 4359.231, 4098.077, 4172.436, 4250.385
1722050964.1362,2024-07-26 20:29:24.136,33,false,0.0,4235.128, 4370.385, 4089.872, 4173.59, 4255.256
1722050964.144,2024-07-26 20:29:24.144,34,false,0.0,4225.256, 4359.872, 4082.821, 4165.641, 4239.487
1722050964.1518,2024-07-26 20:29:24.151,35,false,0.0,4228.333, 4371.026, 4101.154, 4166.667, 4247.051
1722050964.1596,2024-07-26 20:29:24.159,36,false,0.0,4254.615, 4397.692, 4131.667, 4185.385, 4285.897
1722050964.1674,2024-07-26 20:29:24.167,37,false,0.0,4259.359, 4393.718, 4131.795, 4182.949, 4291.026
1722050964.1752,2024-07-26 20:29:24.175,38,false,0.0,4238.333, 4383.333, 4112.308, 4157.82, 4267.436
1722050964.183,2024-07-26 20:29:24.183,39,false,0.0,4226.923, 4385.0, 4102.308, 4153.461, 4265.385
1722050964.1909,2024-07-26 20:29:24.190,40,false,0.0,4229.615, 4369.231, 4096.026, 4170.385, 4268.205
1722050964.1987,2024-07-26 20:29:24.198,41,false,0.0,4235.385, 4357.692, 4094.615, 4178.718, 4261.923
1722050964.2065,2024-07-26 20:29:24.206,42,false,0.0,4235.513, 4378.205, 4104.487, 4175.385, 4268.077
1722050964.2143,2024-07-26 20:29:24.214,43,false,0.0,4223.461, 4387.18, 4105.385, 4168.59, 4271.795
1722050964.2221,2024-07-26 20:29:24.222,44,false,0.0,4219.359, 4375.897, 4096.154, 4166.282, 4262.051
1722050964.2299,2024-07-26 20:29:24.229,45,false,0.0,4232.949, 4381.154, 4102.436, 4171.923, 4263.205
1722050964.2377,2024-07-26 20:29:24.237,46,false,0.0,4230.0, 4381.41, 4110.897, 4168.461, 4262.692
1722050964.2455,2024-07-26 20:29:24.245,47,false,0.0,4210.897, 4361.41, 4100.769, 4155.385, 4246.539
1722050964.2534,2024-07-26 20:29:24.253,48,false,0.0,4216.539, 4362.051, 4101.282, 4159.615, 4247.82
1722050964.2612,2024-07-26 20:29:24.261,49,false,0.0,4232.18, 4375.128, 4117.692, 4171.41, 4265.0
1722050964.269,2024-07-26 20:29:24.269,50,false,0.0,4223.205, 4367.308, 4114.615, 4166.41, 4267.051
1722050964.2768,2024-07-26 20:29:24.276,51,false,0.0,4214.615, 4361.539, 4101.154, 4164.103, 4266.795
1722050964.2846,2024-07-26 20:29:24.284,52,false,0.0,4223.077, 4369.615, 4105.128, 4175.897, 4272.308
1722050964.2924,2024-07-26 20:29:24.292,53,false,0.0,4228.333, 4376.923, 4113.974, 4181.41, 4269.615
1722050964.3002,2024-07-26 20:29:24.300,54,false,0.0,4231.923, 4388.59, 4117.18, 4182.18, 4271.154
1722050964.308,2024-07-26 20:29:24.308,55,false,0.0,4237.18, 4391.282, 4118.59, 4187.308, 4276.667
1722050964.3159,2024-07-26 20:29:24.315,56,false,0.0,4232.436, 4376.026, 4117.308, 4187.051, 4267.82
1722050964.3237,2024-07-26 20:29:24.323,57,false,0.0,4227.692, 4380.128, 4120.641, 4183.461, 4263.461
1722050964.3315,2024-07-26 20:29:24.331,58,false,0.0,4228.077, 4397.949, 4125.641, 4184.487, 4276.41
1722050964.3393,2024-07-26 20:29:24.339,59,false,0.0,4225.513, 4388.974, 4120.0, 4185.641, 4283.59
1722050964.3471,2024-07-26 20:29:24.347,60,false,0.0,4226.923, 4379.615, 4118.205, 4182.436, 4277.308
1722050964.3549,2024-07-26 20:29:24.354,61,false,0.0,4222.308, 4386.026, 4122.692, 4173.59, 4265.0
1722050964.3627,2024-07-26 20:29:24.362,62,false,0.0,4204.872, 4368.461, 4113.59, 4169.744, 4261.923
1722050964.3705,2024-07-26 20:29:24.370,63,false,0.0,4216.41, 4354.359, 4105.641, 4187.692, 4291.282
1722050964.3784,2024-07-26 20:29:24.378,64,false,0.0,4256.026, 4383.205, 4113.974, 4206.41, 4327.692
1722050964.3862,2024-07-26 20:29:24.386,65,false,0.0,4260.256, 4389.103, 4117.051, 4200.897, 4331.795
1722050964.394,2024-07-26 20:29:24.394,66,false,0.0,4238.205, 4346.923, 4113.333, 4199.487, 4335.641
1722050964.4018,2024-07-26 20:29:24.401,67,false,0.0,4247.692, 4337.692, 4118.974, 4217.436, 4362.18
1722050964.4096,2024-07-26 20:29:24.409,68,false,0.0,4267.308, 4366.539, 4124.872, 4219.615, 4370.128
1722050964.4174,2024-07-26 20:29:24.417,69,false,0.0,4256.154, 4368.205, 4124.231, 4202.436, 4353.461
1722050964.4252,2024-07-26 20:29:24.425,70,false,0.0,4239.487, 4354.615, 4118.59, 4195.513, 4345.769
1722050964.433,2024-07-26 20:29:24.433,71,false,0.0,4239.231, 4357.436, 4106.539, 4194.615, 4342.564
1722050964.4409,2024-07-26 20:29:24.440,72,false,0.0,4236.154, 4357.308, 4102.82, 4188.205, 4333.077
1722050964.4487,2024-07-26 20:29:24.448,73,false,0.0,4225.897, 4345.128, 4111.026, 4189.103, 4330.641
1722050964.4565,2024-07-26 20:29:24.456,74,false,0.0,4222.82, 4332.82, 4105.0, 4195.128, 4331.41
1722050964.4643,2024-07-26 20:29:24.464,75,false,0.0,4218.333, 4329.231, 4086.282, 4188.846, 4317.308
1722050964.4721,2024-07-26 20:29:24.472,76,false,0.0,4203.461, 4338.205, 4083.974, 4176.539, 4295.0
1722050964.4799,2024-07-26 20:29:24.479,77,false,0.0,4201.795, 4343.077, 4098.974, 4179.615, 4291.282
1722050964.4877,2024-07-26 20:29:24.487,78,false,0.0,4218.846, 4335.256, 4110.897, 4191.154, 4305.128
1722050964.4955,2024-07-26 20:29:24.495,79,false,0.0,4218.461, 4333.333, 4106.539, 4185.641, 4303.205
1722050964.5034,2024-07-26 20:29:24.503,80,false,0.0,4199.744, 4336.154, 4097.308, 4174.359, 4288.461
1722050964.5112,2024-07-26 20:29:24.511,81,false,0.0,4202.308, 4335.256, 4106.282, 4188.461, 4297.436
1722050964.519,2024-07-26 20:29:24.519,82,false,0.0,4217.949, 4342.436, 4116.154, 4207.436, 4314.103
1722050964.5268,2024-07-26 20:29:24.526,83,false,0.0,4212.82, 4348.59, 4102.051, 4197.308, 4303.205
1722050964.5346,2024-07-26 20:29:24.534,84,false,0.0,4205.385, 4346.282, 4099.744, 4187.436, 4293.846
1722050964.5424,2024-07-26 20:29:24.542,85,false,0.0,4215.256, 4355.256, 4122.564, 4204.231, 4310.256
1722050964.5502,2024-07-26 20:29:24.550,86,false,0.0,4217.82, 4361.667, 4118.718, 4213.461, 4315.513
1722050964.558,2024-07-26 20:29:24.558,87,false,0.0,4208.461, 4348.077, 4097.18, 4200.128, 4299.103
1722050964.5659,2024-07-26 20:29:24.565,88,false,0.0,4210.385, 4349.231, 4110.385, 4194.872, 4293.59
1722050964.5737,2024-07-26 20:29:24.573,89,false,0.0,4219.103, 4368.077, 4130.385, 4201.923, 4301.026
1722050964.5815,2024-07-26 20:29:24.581,90,false,0.0,4220.256, 4363.718, 4118.205, 4203.077, 4301.923
1722050964.5893,2024-07-26 20:29:24.589,91,false,0.0,4221.539, 4351.282, 4106.667, 4200.0, 4296.282
1722050964.5971,2024-07-26 20:29:24.597,92,false,0.0,4226.282, 4359.103, 4117.436, 4198.205, 4294.872
1722050964.6049,2024-07-26 20:29:24.604,93,false,0.0,4228.974, 4361.41, 4128.461, 4196.667, 4301.41
1722050964.6127,2024-07-26 20:29:24.612,94,false,0.0,4229.231, 4351.795, 4127.18, 4197.308, 4304.103
1722050964.6205,2024-07-26 20:29:24.620,95,false,0.0,4225.897, 4358.718, 4119.615, 4194.103, 4292.949
1722050964.6284,2024-07-26 20:29:24.628,96,false,0.0,4215.641, 4369.872, 4115.897, 4181.667, 4280.256
1722050964.6362,2024-07-26 20:29:24.636,97,false,0.0,4205.128, 4360.256, 4120.128, 4176.282, 4277.692
1722050964.644,2024-07-26 20:29:24.644,98,false,0.0,4207.692, 4351.923, 4126.923, 4189.103, 4283.59
1722050964.6518,2024-07-26 20:29:24.651,99,false,0.0,4223.077, 4363.333, 4133.333, 4201.539, 4296.026
1722050964.6596,2024-07-26 20:29:24.659,100,false,0.0,4228.974, 4369.103, 4133.077, 4196.795, 4299.487
1722050964.6674,2024-07-26 20:29:24.667,101,false,0.0,4218.333, 4361.282, 4122.308, 4187.564, 4288.205
1722050964.6752,2024-07-26 20:29:24.675,102,false,0.0,4216.282, 4364.487, 4119.872, 4191.026, 4291.41
1722050964.683,2024-07-26 20:29:24.683,103,false,0.0,4226.923, 4365.513, 4123.461, 4198.974, 4307.436
1722050964.6909,2024-07-26 20:29:24.690,104,false,0.0,4228.59, 4338.846, 4108.718, 4197.308, 4300.513
1722050964.6987,2024-07-26 20:29:24.698,105,false,0.0,4226.41, 4328.077, 4098.333, 4195.256, 4288.205
1722050964.7065,2024-07-26 20:29:24.706,106,false,0.0,4231.795, 4360.0, 4114.615, 4203.846, 4298.333
1722050964.7143,2024-07-26 20:29:24.714,107,false,0.0,4229.359, 4366.923, 4117.949, 4211.667, 4300.385
1722050964.7221,2024-07-26 20:29:24.722,108,false,0.0,4218.974, 4337.308, 4099.872, 4210.513, 4284.103
1722050964.7299,2024-07-26 20:29:24.729,109,false,0.0,4216.667, 4346.154, 4105.256, 4208.846, 4282.18
1722050964.7377,2024-07-26 20:29:24.737,110,false,0.0,4218.718, 4375.769, 4126.539, 4211.41, 4295.0
1722050964.7455,2024-07-26 20:29:24.745,111,false,0.0,4217.692, 4360.256, 4124.615, 4217.949, 4298.077
1722050964.7534,2024-07-26 20:29:24.753,112,false,0.0,4207.308, 4338.333, 4106.539, 4218.077, 4281.667
1722050964.7612,2024-07-26 20:29:24.761,113,false,0.0,4183.974, 4346.41, 4092.436, 4200.0, 4252.436
1722050964.769,2024-07-26 20:29:24.769,114,false,0.0,4172.308, 4349.615, 4086.026, 4182.949, 4237.82
1722050964.7768,2024-07-26 20:29:24.776,115,false,0.0,4181.539, 4351.154, 4088.077, 4186.923, 4246.41
1722050964.7846,2024-07-26 20:29:24.784,116,false,0.0,4181.282, 4361.667, 4090.128, 4190.897, 4248.974
1722050964.7924,2024-07-26 20:29:24.792,117,false,0.0,4173.846, 4352.82, 4085.897, 4185.513, 4241.41
1722050964.8002,2024-07-26 20:29:24.800,118,false,0.0,4182.051, 4345.128, 4084.615, 4186.026, 4242.82
1722050964.808,2024-07-26 20:29:24.808,119,false,0.0,4184.615, 4365.769, 4089.744, 4184.615, 4244.359
1722050964.8159,2024-07-26 20:29:24.815,120,false,0.0,4173.974, 4372.564, 4094.359, 4176.282, 4242.18
1722050964.8237,2024-07-26 20:29:24.823,121,false,0.0,4178.974, 4353.718, 4095.897, 4178.59, 4249.487
1722050964.8315,2024-07-26 20:29:24.831,122,false,0.0,4185.769, 4346.667, 4092.949, 4186.41, 4252.18
1722050964.8393,2024-07-26 20:29:24.839,123,false,0.0,4171.667, 4344.103, 4086.026, 4184.872, 4239.231
1722050964.8471,2024-07-26 20:29:24.847,124,false,0.0,4164.231, 4333.461, 4081.923, 4181.282, 4232.82
1722050964.8549,2024-07-26 20:29:24.854,125,false,0.0,4174.872, 4336.282, 4085.769, 4181.923, 4241.539
1722050964.8627,2024-07-26 20:29:24.862,126,false,0.0,4180.128, 4348.718, 4094.103, 4182.949, 4246.667
1722050964.8705,2024-07-26 20:29:24.870,127,false,0.0,4179.487, 4351.539, 4100.128, 4181.923, 4244.744
1722050964.8784,2024-07-26 20:29:24.878,0,false,0.0,4184.744, 4351.154, 4109.487, 4185.513, 4249.872
1722050964.8862,2024-07-26 20:29:24.886,1,false,0.0,4194.359, 4352.692, 4122.308, 4198.974, 4261.41
1722050964.894,2024-07-26 20:29:24.894,2,false,0.0,4199.872, 4350.769, 4119.615, 4201.539, 4259.487
1722050964.9018,2024-07-26 20:29:24.901,3,false,0.0,4191.539, 4345.385, 4105.128, 4183.077, 4244.487
1722050964.9096,2024-07-26 20:29:24.909,4,false,0.0,4180.256, 4341.154, 4107.051, 4179.359, 4248.333
1722050964.9174,2024-07-26 20:29:24.917,5,false,0.0,4184.231, 4342.18, 4115.256, 4195.513, 4269.615
1722050964.9252,2024-07-26 20:29:24.925,6,false,0.0,4185.385, 4338.974, 4103.461, 4189.487, 4266.026
1722050964.933,2024-07-26 20:29:24.933,7,false,0.0,4172.82, 4326.41, 4091.154, 4171.923, 4245.385
1722050964.9409,2024-07-26 20:29:24.940,8,false,0.0,4176.667, 4327.436, 4100.385, 4179.744, 4252.436
1722050964.9487,2024-07-26 20:29:24.948,9,false,0.0,4194.872, 4340.128, 4105.641, 4192.82, 4270.256
1722050964.9565,2024-07-26 20:29:24.956,10,false,0.0,4194.359, 4340.769, 4090.641, 4188.205, 4261.923
1722050964.9643,2024-07-26 20:29:24.964,11,false,0.0,4187.692, 4348.077, 4083.846, 4184.231, 4252.308
1722050964.9721,2024-07-26 20:29:24.972,12,false,0.0,4193.205, 4366.41, 4096.795, 4187.949, 4262.564
1722050964.9799,2024-07-26 20:29:24.979,13,false,0.0,4193.077, 4356.026, 4102.564, 4190.769, 4267.692
1722050964.9877,2024-07-26 20:29:24.987,14,false,0.0,4190.128, 4341.795, 4098.333, 4193.59, 4263.077
1722050964.9955,2024-07-26 20:29:24.995,15,false,0.0,4199.103, 4367.051, 4107.436, 4195.769, 4268.205
1722050965.0034,2024-07-26 20:29:25.003,16,false,0.0,4197.949, 4378.59, 4112.949, 4191.667, 4269.359
1722050965.0112,2024-07-26 20:29:25.011,17,false,0.0,4179.359, 4347.18, 4094.103, 4183.077, 4252.308
1722050965.019,2024-07-26 20:29:25.019,18,false,0.0,4175.256, 4340.897, 4087.692, 4182.692, 4244.103
1722050965.0268,2024-07-26 20:29:25.026,19,false,0.0,4183.077, 4363.461, 4106.539, 4191.41, 4255.769
1722050965.0346,2024-07-26 20:29:25.034,20,false,0.0,4168.718, 4347.051, 4102.18, 4185.385, 4251.667
1722050965.0424,2024-07-26 20:29:25.042,21,false,0.0,4142.949, 4310.513, 4076.41, 4163.205, 4224.615
1722050965.0502,2024-07-26 20:29:25.050,22,false,0.0,4145.897, 4323.205, 4080.641, 4161.282, 4216.41
1722050965.058,2024-07-26 20:29:25.058,23,false,0.0,4176.539, 4369.231, 4107.692, 4182.564, 4237.692
1722050965.0659,2024-07-26 20:29:25.065,24,false,0.0,4207.949, 4386.154, 4118.461, 4195.128, 4260.513
1722050965.0737,2024-07-26 20:29:25.073,25,false,0.0,4228.205, 4374.615, 4111.282, 4193.205, 4270.256
1722050965.0815,2024-07-26 20:29:25.081,26,false,0.0,4229.615, 4372.436, 4099.487, 4180.897, 4261.41
1722050965.0893,2024-07-26 20:29:25.089,27,false,0.0,4215.769, 4374.744, 4095.0, 4163.718, 4241.923
1722050965.0971,2024-07-26 20:29:25.097,28,false,0.0,4209.231, 4364.359, 4102.82, 4165.897, 4241.923
1722050965.1049,2024-07-26 20:29:25.104,29,false,0.0,4213.59, 4363.077, 4102.692, 4181.026, 4255.0
1722050965.1127,2024-07-26 20:29:25.112,30,false,0.0,4213.077, 4376.667, 4088.59, 4176.154, 4247.564
1722050965.1205,2024-07-26 20:29:25.120,31,false,0.0,4211.41, 4372.308, 4085.769, 4166.282, 4239.231
1722050965.1284,2024-07-26 20:29:25.128,32,false,0.0,4213.333, 4355.128, 4097.436, 4178.333, 4251.026
1722050965.1362,2024-07-26 20:29:25.136,33,false,0.0,4210.385, 4354.615, 4102.949, 4189.872, 4249.103
1722050965.144,2024-07-26 20:29:25.144,34,false,0.0,4208.205, 4357.308, 4101.923, 4181.154, 4231.026
1722050965.1518,2024-07-26 20:29:25.151,35,false,0.0,4210.897, 4351.026, 4102.18, 4168.461, 4231.539
1722050965.1596,2024-07-26 20:29:25.159,36,false,0.0,4207.564, 4357.308, 4103.077, 4168.333, 4236.539
1722050965.1674,2024-07-26 20:29:25.167,37,false,0.0,4204.103, 4371.282, 4104.487, 4175.897, 4224.487
1722050965.1752,2024-07-26 20:29:25.175,38,false,0.0,4204.359, 4370.513, 4102.308, 4171.539, 4217.308
1722050965.183,2024-07-26 20:29:25.183,39,false,0.0,4198.461, 4366.41, 4096.923, 4161.026, 4223.846
1722050965.1909,2024-07-26 20:29:25.190,40,false,0.0,4200.513, 4372.308, 4099.615, 4171.154, 4231.026
1722050965.1987,2024-07-26 20:29:25.198,41,false,0.0,4213.846, 4372.308, 4105.128, 4182.051, 4233.077
1722050965.2065,2024-07-26 20:29:25.206,42,false,0.0,4205.897, 4359.744, 4100.0, 4163.333, 4224.103
1722050965.2143,2024-07-26 20:29:25.214,43,false,0.0,4186.923, 4351.41, 4094.359, 4151.41, 4214.487
1722050965.2221,2024-07-26 20:29:25.222,44,false,0.0,4200.128, 4359.872, 4097.18, 4171.923, 4224.615
1722050965.2299,2024-07-26 20:29:25.229,45,false,0.0,4224.872, 4373.59, 4096.154, 4183.59, 4236.667
1722050965.2377,2024-07-26 20:29:25.237,46,false,0.0,4219.615, 4371.539, 4089.872, 4170.513, 4229.872
1722050965.2455,2024-07-26 20:29:25.245,47,false,0.0,4203.718, 4360.0, 4092.051, 4163.205, 4225.641
1722050965.2534,2024-07-26 20:29:25.253,48,false,0.0,4205.256, 4358.205, 4099.615, 4167.308, 4231.282
1722050965.2612,2024-07-26 20:29:25.261,49,false,0.0,4210.513, 4358.718, 4096.923, 4161.923, 4226.282
1722050965.269,2024-07-26 20:29:25.269,50,false,0.0,4205.128, 4355.513, 4087.051, 4144.615, 4216.026
1722050965.2768,2024-07-26 20:29:25.276,51,false,0.0,4200.513, 4359.615, 4086.539, 4134.744, 4215.128
1722050965.2846,2024-07-26 20:29:25.284,52,false,0.0,4204.231, 4358.718, 4093.59, 4142.692, 4213.974
1722050965.2924,2024-07-26 20:29:25.292,53,false,0.0,4207.949, 4347.051, 4098.077, 4152.051, 4212.308
1722050965.3002,2024-07-26 20:29:25.300,54,false,0.0,4208.718, 4356.795, 4104.103, 4149.103, 4221.41
1722050965.308,2024-07-26 20:29:25.308,55,false,0.0,4204.615, 4374.872, 4105.0, 4142.949, 4227.18
1722050965.3159,2024-07-26 20:29:25.315,56,false,0.0,4193.205, 4360.641, 4092.051, 4144.231, 4217.308
1722050965.3237,2024-07-26 20:29:25.323,57,false,0.0,4191.923, 4350.385, 4086.795, 4150.513, 4212.692
1722050965.3315,2024-07-26 20:29:25.331,58,false,0.0,4204.103, 4372.308, 4097.436, 4150.769, 4218.718
1722050965.3393,2024-07-26 20:29:25.339,59,false,0.0,4203.205, 4373.077, 4098.205, 4143.846, 4214.103
1722050965.3471,2024-07-26 20:29:25.347,60,false,0.0,4196.539, 4353.59, 4090.128, 4148.718, 4205.513
1722050965.3549,2024-07-26 20:29:25.354,61,false,0.0,4208.077, 4359.359, 4089.103, 4162.949, 4208.59
1722050965.3627,2024-07-26 20:29:25.362,62,false,0.0,4216.282, 4363.333, 4090.0, 4161.282, 4210.641
1722050965.3705,2024-07-26 20:29:25.370,63,false,0.0,4211.282, 4354.615, 4093.333, 4151.282, 4209.103
1722050965.3784,2024-07-26 20:29:25.378,64,false,0.0,4212.564, 4364.359, 4093.718, 4147.949, 4211.026
1722050965.3862,2024-07-26 20:29:25.386,65,false,0.0,4214.359, 4363.718, 4082.436, 4145.641, 4209.103
1722050965.394,2024-07-26 20:29:25.394,66,false,0.0,4218.077, 4349.615, 4087.436, 4154.103, 4213.59
1722050965.4018,2024-07-26 20:29:25.401,67,false,0.0,4233.077, 4369.872, 4111.026, 4169.744, 4227.692
1722050965.4096,2024-07-26 20:29:25.409,68,false,0.0,4226.282, 4380.897, 4107.436, 4160.769, 4219.359
1722050965.4174,2024-07-26 20:29:25.417,69,false,0.0,4193.974, 4347.051, 4083.333, 4137.692, 4192.308
1722050965.4252,2024-07-26 20:29:25.425,70,false,0.0,4181.923, 4339.359, 4072.821, 4131.026, 4181.41
1722050965.433,2024-07-26 20:29:25.433,71,false,0.0,4188.461, 4357.308, 4068.59, 4130.128, 4182.82
1722050965.4409,2024-07-26 20:29:25.440,72,false,0.0,4191.667, 4347.18, 4077.051, 4131.154, 4191.923
1722050965.4487,2024-07-26 20:29:25.448,73,false,0.0,4200.128, 4352.949, 4103.077, 4145.513, 4214.744
1722050965.4565,2024-07-26 20:29:25.456,74,false,0.0,4203.718, 4383.718, 4109.615, 4156.282, 4224.487
1722050965.4643,2024-07-26 20:29:25.464,75,false,0.0,4193.974, 4374.744, 4099.231, 4156.795, 4213.59
1722050965.4721,2024-07-26 20:29:25.472,76,false,0.0,4193.718, 4352.18, 4105.0, 4159.231, 4212.949
1722050965.4799,2024-07-26 20:29:25.479,77,false,0.0,4200.513, 4360.256, 4108.461, 4158.205, 4222.82
1722050965.4877,2024-07-26 20:29:25.487,78,false,0.0,4199.487, 4360.256, 4095.256, 4154.615, 4225.513
1722050965.4955,2024-07-26 20:29:25.495,79,false,0.0,4205.385, 4346.795, 4089.872, 4159.231, 4226.539
1722050965.5034,2024-07-26 20:29:25.503,80,false,0.0,4218.205, 4353.974, 4093.205, 4161.154, 4229.744
1722050965.5112,2024-07-26 20:29:25.511,81,false,0.0,4217.051, 4368.077, 4091.539, 4153.846, 4229.615
1722050965.519,2024-07-26 20:29:25.519,82,false,0.0,4205.513, 4365.128, 4087.692, 4151.923, 4222.82
1722050965.5268,2024-07-26 20:29:25.526,83,false,0.0,4203.333, 4351.795, 4084.615, 4154.487, 4212.949
1722050965.5346,2024-07-26 20:29:25.534,84,false,0.0,4214.744, 4352.949, 4087.436, 4151.795, 4215.128
1722050965.5424,2024-07-26 20:29:25.542,85,false,0.0,4225.897, 4379.487, 4096.923, 4149.231, 4227.436
1722050965.5502,2024-07-26 20:29:25.550,86,false,0.0,4222.692, 4387.308, 4100.256, 4151.282, 4230.641
1722050965.558,2024-07-26 20:29:25.558,87,false,0.0,4214.231, 4353.59, 4094.744, 4151.923, 4228.205
1722050965.5659,2024-07-26 20:29:25.565,88,false,0.0,4213.205, 4339.615, 4090.256, 4149.615, 4230.0
1722050965.5737,2024-07-26 20:29:25.573,89,false,0.0,4213.461, 4359.872, 4092.821, 4153.718, 4232.436
1722050965.5815,2024-07-26 20:29:25.581,90,false,0.0,4215.897, 4359.744, 4102.18, 4167.436, 4241.41
1722050965.5893,2024-07-26 20:29:25.589,91,false,0.0,4224.359, 4351.795, 4105.513, 4172.82, 4249.487
1722050965.5971,2024-07-26 20:29:25.597,92,false,0.0,4222.436, 4365.897, 4094.359, 4160.128, 4233.59
1722050965.6049,2024-07-26 20:29:25.604,93,false,0.0,4207.949, 4369.103, 4084.359, 4151.026, 4212.18
1722050965.6127,2024-07-26 20:29:25.612,94,false,0.0,4203.846, 4355.385, 4082.821, 4157.18, 4213.974
1722050965.6205,2024-07-26 20:29:25.620,95,false,0.0,4212.692, 4352.692, 4082.308, 4162.692, 4220.769
1722050965.6284,2024-07-26 20:29:25.628,96,false,0.0,4218.461, 4358.333, 4087.564, 4159.872, 4220.513
1722050965.6362,2024-07-26 20:29:25.636,97,false,0.0,4218.461, 4372.051, 4095.641, 4157.308, 4227.051
1722050965.644,2024-07-26 20:29:25.644,98,false,0.0,4217.82, 4385.897, 4094.103, 4158.718, 4233.205
1722050965.6518,2024-07-26 20:29:25.651,99,false,0.0,4218.461, 4374.103, 4090.769, 4162.051, 4229.103
1722050965.6596,2024-07-26 20:29:25.659,100,false,0.0,4221.026, 4358.718, 4090.769, 4161.667, 4225.385
1722050965.6674,2024-07-26 20:29:25.667,101,false,0.0,4225.128, 4360.641, 4086.282, 4159.744, 4227.308
1722050965.6752,2024-07-26 20:29:25.675,102,false,0.0,4228.974, 4350.0, 4083.205, 4165.256, 4230.641
1722050965.683,2024-07-26 20:29:25.683,103,false,0.0,4227.564, 4343.59, 4084.487, 4167.564, 4229.744
1722050965.6909,2024-07-26 20:29:25.690,104,false,0.0,4220.641, 4368.59, 4083.846, 4156.282, 4222.692
1722050965.6987,2024-07-26 20:29:25.698,105,false,0.0,4219.615, 4373.077, 4089.615, 4152.949, 4221.539
1722050965.7065,2024-07-26 20:29:25.706,106,false,0.0,4226.026, 4349.615, 4095.385, 4163.333, 4224.872
1722050965.7143,2024-07-26 20:29:25.714,107,false,0.0,4223.077, 4360.0, 4081.539, 4155.513, 4210.0
1722050965.7221,2024-07-26 20:29:25.722,108,false,0.0,4207.82, 4380.769, 4065.256, 4131.667, 4189.615
1722050965.7299,2024-07-26 20:29:25.729,109,false,0.0,4201.539, 4368.59, 4074.103, 4134.615, 4198.718
1722050965.7377,2024-07-26 20:29:25.737,110,false,0.0,4216.026, 4369.615, 4094.744, 4162.436, 4223.718
1722050965.7455,2024-07-26 20:29:25.745,111,false,0.0,4229.359, 4390.897, 4101.539, 4168.974, 4226.282
1722050965.7534,2024-07-26 20:29:25.753,112,false,0.0,4219.615, 4374.359, 4092.564, 4147.949, 4210.385
1722050965.7612,2024-07-26 20:29:25.761,113,false,0.0,4210.769, 4347.051, 4087.308, 4139.359, 4209.487
1722050965.769,2024-07-26 20:29:25.769,114,false,0.0,4228.461, 4364.744, 4099.744, 4155.513, 4228.205
1722050965.7768,2024-07-26 20:29:25.776,115,false,0.0,4241.539, 4382.692, 4112.82, 4165.897, 4234.615
1722050965.7846,2024-07-26 20:29:25.784,116,false,0.0,4226.795, 4360.769, 4109.231, 4157.692, 4215.513
1722050965.7924,2024-07-26 20:29:25.792,117,false,0.0,4217.051, 4348.205, 4105.256, 4151.795, 4203.718
1722050965.8002,2024-07-26 20:29:25.800,118,false,0.0,4227.18, 4367.436, 4110.128, 4157.82, 4213.974
1722050965.808,2024-07-26 20:29:25.808,119,false,0.0,4231.923, 4377.564, 4109.487, 4164.744, 4221.667
1722050965.8159,2024-07-26 20:29:25.815,120,false,0.0,4225.769, 4372.18, 4104.103, 4168.205, 4220.385
1722050965.8237,2024-07-26 20:29:25.823,121,false,0.0,4224.872, 4372.051, 4104.487, 4171.41, 4224.231
1722050965.8315,2024-07-26 20:29:25.831,122,false,0.0,4233.974, 4370.897, 4107.82, 4172.82, 4228.59
1722050965.8393,2024-07-26 20:29:25.839,123,false,0.0,4240.641, 4366.282, 4107.051, 4168.59, 4224.744
1722050965.8471,2024-07-26 20:29:25.847,124,false,0.0,4227.308, 4366.026, 4094.103, 4156.41, 4212.308
1722050965.8549,2024-07-26 20:29:25.854,125,false,0.0,4204.615, 4362.436, 4075.128, 4144.487, 4194.615
1722050965.8627,2024-07-26 20:29:25.862,126,false,0.0,4205.641, 4359.615, 4080.641, 4152.692, 4192.308
1722050965.8705,2024-07-26 20:29:25.870,127,false,0.0,4227.82, 4370.769, 4110.513, 4174.744, 4217.436
1722050965.8784,2024-07-26 20:29:25.878,0,false,0.0,4239.487, 4383.59, 4121.154, 4176.795, 4235.897
1722050965.8862,2024-07-26 20:29:25.886,1,false,0.0,4234.615, 4384.615, 4107.436, 4157.308, 4221.154
1722050965.894,2024-07-26 20:29:25.894,2,false,0.0,4229.487, 4382.308, 4105.128, 4148.718, 4206.667
1722050965.9018,2024-07-26 20:29:25.901,3,false,0.0,4232.308, 4382.82, 4115.641, 4159.872, 4221.795
1722050965.9096,2024-07-26 20:29:25.909,4,false,0.0,4237.82, 4375.128, 4114.231, 4171.154, 4236.154
1722050965.9174,2024-07-26 20:29:25.917,5,false,0.0,4236.667, 4354.103, 4101.795, 4169.487, 4226.026
1722050965.9252,2024-07-26 20:29:25.925,6,false,0.0,4232.436, 4343.077, 4096.539, 4160.256, 4218.59
1722050965.933,2024-07-26 20:29:25.933,7,false,0.0,4232.308, 4356.154, 4100.513, 4158.205, 4227.051
1722050965.9409,2024-07-26 20:29:25.940,8,false,0.0,4229.359, 4370.256, 4100.385, 4165.128, 4226.667
1722050965.9487,2024-07-26 20:29:25.948,9,false,0.0,4225.0, 4377.18, 4094.231, 4166.539, 4214.744
1722050965.9565,2024-07-26 20:29:25.956,10,false,0.0,4228.205, 4380.0, 4093.461, 4157.692, 4209.359
1722050965.9643,2024-07-26 20:29:25.964,11,false,0.0,4229.103, 4358.974, 4090.897, 4148.077, 4208.205
1722050965.9721,2024-07-26 20:29:25.972,12,false,0.0,4222.692, 4337.564, 4077.179, 4143.205, 4206.282
1722050965.9799,2024-07-26 20:29:25.979,13,false,0.0,4226.154, 4361.026, 4076.026, 4145.128, 4211.41
1722050965.9877,2024-07-26 20:29:25.987,14,false,0.0,4237.564, 4383.077, 4097.18, 4151.026, 4221.667
1722050965.9955,2024-07-26 20:29:25.995,15,false,0.0,4235.256, 4359.487, 4107.308, 4147.82, 4222.82
1722050966.0034,2024-07-26 20:29:26.003,16,false,0.0,4221.539, 4339.487, 4092.692, 4135.385, 4208.718
1722050966.0112,2024-07-26 20:29:26.011,17,false,0.0,4212.949, 4344.487, 4079.615, 4133.205, 4192.692
1722050966.019,2024-07-26 20:29:26.019,18,false,0.0,4213.077, 4350.0, 4083.718, 4146.667, 4196.41
1722050966.0268,2024-07-26 20:29:26.026,19,false,0.0,4218.846, 4357.564, 4092.821, 4160.0, 4223.461
1722050966.0346,2024-07-26 20:29:26.034,20,false,0.0,4225.897, 4349.487, 4088.718, 4165.256, 4252.436
1722050966.0424,2024-07-26 20:29:26.042,21,false,0.0,4232.949, 4327.564, 4077.051, 4170.256, 4268.461
1722050966.0502,2024-07-26 20:29:26.050,22,false,0.0,4245.769, 4340.513, 4084.744, 4177.564, 4285.256
1722050966.058,2024-07-26 20:29:26.058,23,false,0.0,4263.974, 4362.436, 4105.641, 4181.282, 4315.0
1722050966.0659,2024-07-26 20:29:26.065,24,false,0.0,4273.461, 4347.18, 4106.026, 4177.949, 4329.231
1722050966.0737,2024-07-26 20:29:26.073,25,false,0.0,4265.769, 4344.103, 4095.385, 4168.333, 4307.692
1722050966.0815,2024-07-26 20:29:26.081,26,false,0.0,4256.154, 4365.0, 4104.103, 4162.308, 4293.077
1722050966.0893,2024-07-26 20:29:26.089,27,false,0.0,4263.718, 4359.615, 4116.667, 4172.051, 4314.615
1722050966.0971,2024-07-26 20:29:26.097,28,false,0.0,4276.539, 4347.436, 4109.744, 4188.461, 4329.359
1722050966.1049,2024-07-26 20:29:26.104,29,false,0.0,4270.128, 4345.385, 4098.205, 4190.897, 4315.0
1722050966.1127,2024-07-26 20:29:26.112,30,false,0.0,4255.513, 4329.231, 4098.077, 4182.564, 4303.077
1722050966.1205,2024-07-26 20:29:26.120,31,false,0.0,4255.513, 4331.795, 4099.359, 4177.949, 4301.667
1722050966.1284,2024-07-26 20:29:26.128,32,false,0.0,4257.564, 4359.487, 4094.872, 4174.231, 4296.282
1722050966.1362,2024-07-26 20:29:26.136,33,false,0.0,4245.385, 4348.718, 4094.615, 4170.769, 4290.385
1722050966.144,2024-07-26 20:29:26.144,34,false,0.0,4235.256, 4321.154, 4102.692, 4176.282, 4287.436
1722050966.1518,2024-07-26 20:29:26.151,35,false,0.0,4239.872, 4335.641, 4111.795, 4183.333, 4288.846
1722050966.1596,2024-07-26 20:29:26.159,36,false,0.0,4247.564, 4349.744, 4118.205, 4178.59, 4296.41
1722050966.1674,2024-07-26 20:29:26.167,37,false,0.0,4251.667, 4332.436, 4121.154, 4173.077, 4299.359
1722050966.1752,2024-07-26 20:29:26.175,38,false,0.0,4254.359, 4331.667, 4118.718, 4177.564, 4295.128
1722050966.183,2024-07-26 20:29:26.183,39,false,0.0,4247.18, 4344.615, 4114.359, 4176.539, 4290.128
1722050966.1909,2024-07-26 20:29:26.190,40,false,0.0,4232.051, 4327.051, 4107.308, 4164.744, 4280.256
1722050966.1987,2024-07-26 20:29:26.198,41,false,0.0,4231.154, 4308.461, 4096.282, 4163.846, 4273.333
1722050966.2065,2024-07-26 20:29:26.206,42,false,0.0,4241.539, 4330.256, 4091.923, 4173.333, 4277.564
1722050966.2143,2024-07-26 20:29:26.214,43,false,0.0,4238.974, 4355.769, 4097.564, 4172.564, 4280.641
1722050966.2221,2024-07-26 20:29:26.222,44,false,0.0,4236.923, 4351.026, 4103.974, 4172.051, 4288.205
1722050966.2299,2024-07-26 20:29:26.229,45,false,0.0,4250.128, 4341.026, 4106.026, 4186.539, 4306.154
1722050966.2377,2024-07-26 20:29:26.237,46,false,0.0,4252.18, 4340.769, 4103.077, 4195.513, 4307.692
1722050966.2455,2024-07-26 20:29:26.245,47,false,0.0,4242.051, 4337.051, 4100.128, 4190.385, 4295.897
1722050966.2534,2024-07-26 20:29:26.253,48,false,0.0,4244.744, 4332.564, 4103.846, 4189.359, 4296.282
1722050966.2612,2024-07-26 20:29:26.261,49,false,0.0,4243.974, 4335.513, 4104.872, 4187.564, 4288.718
1722050966.269,2024-07-26 20:29:26.269,50,false,0.0,4229.231, 4340.769, 4101.026, 4174.872, 4267.949
1722050966.2768,2024-07-26 20:29:26.276,51,false,0.0,4225.385, 4340.385, 4105.641, 4169.231, 4267.564
1722050966.2846,2024-07-26 20:29:26.284,52,false,0.0,4228.974, 4334.103, 4110.256, 4178.59, 4278.333
1722050966.2924,2024-07-26 20:29:26.292,53,false,0.0,4230.897, 4340.0, 4108.974, 4185.513, 4278.718
1722050966.3002,2024-07-26 20:29:26.300,54,false,0.0,4242.949, 4364.231, 4120.0, 4187.051, 4287.82
1722050966.308,2024-07-26 20:29:26.308,55,false,0.0,4246.795, 4368.59, 4128.718, 4190.385, 4300.897
1722050966.3159,2024-07-26 20:29:26.315,56,false,0.0,4230.897, 4343.077, 4111.667, 4189.872, 4292.564
1722050966.3237,2024-07-26 20:29:26.323,57,false,0.0,4227.436, 4337.18, 4102.564, 4188.59, 4282.051
1722050966.3315,2024-07-26 20:29:26.331,58,false,0.0,4237.18, 4352.949, 4119.231, 4196.795, 4288.846
1722050966.3393,2024-07-26 20:29:26.339,59,false,0.0,4233.846, 4344.103, 4121.282, 4204.487, 4293.718
1722050966.3471,2024-07-26 20:29:26.347,60,false,0.0,4231.026, 4331.795, 4104.103, 4202.564, 4287.436
1722050966.3549,2024-07-26 20:29:26.354,61,false,0.0,4232.692, 4351.026, 4100.128, 4198.718, 4276.795
1722050966.3627,2024-07-26 20:29:26.362,62,false,0.0,4211.026, 4355.513, 4096.41, 4187.18, 4258.846
1722050966.3705,2024-07-26 20:29:26.370,63,false,0.0,4181.154, 4324.615, 4075.0, 4168.974, 4241.026
1722050966.3784,2024-07-26 20:29:26.378,64,false,0.0,4180.769, 4316.923, 4063.461, 4169.615, 4239.487
1722050966.3862,2024-07-26 20:29:26.386,65,false,0.0,4195.513, 4343.461, 4075.513, 4181.154, 4245.641
1722050966.394,2024-07-26 20:29:26.394,66,false,0.0,4200.128, 4361.923, 4092.949, 4177.18, 4247.692
1722050966.4018,2024-07-26 20:29:26.401,67,false,0.0,4205.769, 4368.205, 4106.923, 4176.923, 4255.385
1722050966.4096,2024-07-26 20:29:26.409,68,false,0.0,4211.539, 4362.82, 4109.359, 4190.256, 4262.82
1722050966.4174,2024-07-26 20:29:26.417,69,false,0.0,4202.82, 4341.282, 4101.154, 4188.59, 4255.0
1722050966.4252,2024-07-26 20:29:26.425,70,false,0.0,4200.256, 4341.795, 4109.615, 4182.308, 4254.231
1722050966.433,2024-07-26 20:29:26.433,71,false,0.0,4214.231, 4365.641, 4131.667, 4194.615, 4273.333
1722050966.4409,2024-07-26 20:29:26.440,72,false,0.0,4215.385, 4361.539, 4128.333, 4201.923, 4277.436
1722050966.4487,2024-07-26 20:29:26.448,73,false,0.0,4207.436, 4343.461, 4108.59, 4195.128, 4263.718
1722050966.4565,2024-07-26 20:29:26.456,74,false,0.0,4212.82, 4344.103, 4105.769, 4191.41, 4261.539
1722050966.4643,2024-07-26 20:29:26.464,75,false,0.0,4207.308, 4332.308, 4104.487, 4182.692, 4256.667
1722050966.4721,2024-07-26 20:29:26.472,76,false,0.0,4187.692, 4316.667, 4091.923, 4173.59, 4239.615
1722050966.4799,2024-07-26 20:29:26.479,77,false,0.0,4192.051, 4341.282, 4095.128, 4182.18, 4240.513
1722050966.4877,2024-07-26 20:29:26.487,78,false,0.0,4203.846, 4368.974, 4109.744, 4185.385, 4250.0
1722050966.4955,2024-07-26 20:29:26.495,79,false,0.0,4190.256, 4358.846, 4107.692, 4172.692, 4244.231
1722050966.5034,2024-07-26 20:29:26.503,80,false,0.0,4185.128, 4347.949, 4104.359, 4179.359, 4247.82
1722050966.5112,2024-07-26 20:29:26.511,81,false,0.0,4201.667, 4356.026, 4111.795, 4197.564, 4264.231
1722050966.519,2024-07-26 20:29:26.519,82,false,0.0,4201.154, 4354.231, 4102.051, 4191.41, 4261.667
1722050966.5268,2024-07-26 20:29:26.526,83,false,0.0,4193.461, 4339.615, 4086.41, 4183.461, 4255.641
1722050966.5346,2024-07-26 20:29:26.534,84,false,0.0,4213.59, 4340.769, 4104.487, 4199.231, 4273.333
1722050966.5424,2024-07-26 20:29:26.542,85,false,0.0,4236.795, 4358.205, 4130.128, 4209.487, 4286.923
1722050966.5502,2024-07-26 20:29:26.550,86,false,0.0,4233.974, 4360.385, 4125.513, 4198.846, 4278.205
1722050966.558,2024-07-26 20:29:26.558,87,false,0.0,4226.539, 4354.103, 4116.795, 4191.41, 4275.769
1722050966.5659,2024-07-26 20:29:26.565,88,false,0.0,4228.974, 4370.641, 4124.615, 4193.333, 4287.82
1722050966.5737,2024-07-26 20:29:26.573,89,false,0.0,4226.667, 4379.487, 4129.487, 4192.82, 4289.487
1722050966.5815,2024-07-26 20:29:26.581,90,false,0.0,4218.59, 4361.026, 4126.41, 4190.897, 4276.282
1722050966.5893,2024-07-26 20:29:26.589,91,false,0.0,4214.872, 4361.539, 4121.282, 4191.923, 4264.231
1722050966.5971,2024-07-26 20:29:26.597,92,false,0.0,4210.256, 4370.641, 4114.359, 4192.436, 4257.436
1722050966.6049,2024-07-26 20:29:26.604,93,false,0.0,4203.333, 4354.231, 4112.564, 4192.051, 4251.41
1722050966.6127,2024-07-26 20:29:26.612,94,false,0.0,4201.282, 4356.41, 4114.103, 4188.846, 4244.103
1722050966.6205,2024-07-26 20:29:26.620,95,false,0.0,4200.385, 4373.974, 4109.487, 4181.923, 4240.769
1722050966.6284,2024-07-26 20:29:26.628,96,false,0.0,4197.051, 4353.333, 4103.461, 4181.026, 4247.692
1722050966.6362,2024-07-26 20:29:26.636,97,false,0.0,4195.641, 4335.641, 4096.154, 4187.051, 4250.513
1722050966.644,2024-07-26 20:29:26.644,98,false,0.0,4192.18, 4353.59, 4084.615, 4185.641, 4238.461
1722050966.6518,2024-07-26 20:29:26.651,99,false,0.0,4188.205, 4359.615, 4085.769, 4180.769, 4235.769
1722050966.6596,2024-07-26 20:29:26.659,100,false,0.0,4191.026, 4357.564, 4097.436, 4183.59, 4244.103
1722050966.6674,2024-07-26 20:29:26.667,101,false,0.0,4186.795, 4365.128, 4093.333, 4178.718, 4227.308
1722050966.6752,2024-07-26 20:29:26.675,102,false,0.0,4171.923, 4355.513, 4082.308, 4165.0, 4201.026
1722050966.683,2024-07-26 20:29:26.683,103,false,0.0,4175.256, 4350.897, 4093.846, 4171.154, 4211.795
1722050966.6909,2024-07-26 20:29:26.690,104,false,0.0,4196.923, 4371.282, 4115.513, 4192.692, 4238.461
1722050966.6987,2024-07-26 20:29:26.698,105,false,0.0,4203.59, 4371.539, 4119.872, 4198.718, 4241.282
1722050966.7065,2024-07-26 20:29:26.706,106,false,0.0,4195.897, 4353.333, 4112.436, 4195.641, 4235.0
1722050966.7143,2024-07-26 20:29:26.714,107,false,0.0,4195.897, 4355.897, 4107.18, 4198.846, 4236.026
1722050966.7221,2024-07-26 20:29:26.722,108,false,0.0,4198.59, 4365.897, 4099.615, 4196.795, 4233.077
1722050966.7299,2024-07-26 20:29:26.729,109,false,0.0,4193.461, 4363.077, 4089.487, 4186.795, 4226.41
1722050966.7377,2024-07-26 20:29:26.737,110,false,0.0,4185.769, 4353.846, 4086.026, 4181.667, 4223.846
1722050966.7455,2024-07-26 20:29:26.745,111,false,0.0,4181.795, 4350.897, 4090.769, 4179.359, 4222.436
1722050966.7534,2024-07-26 20:29:26.753,112,false,0.0,4181.667, 4362.949, 4099.872, 4175.513, 4222.564
1722050966.7612,2024-07-26 20:29:26.761,113,false,0.0,4181.923, 4367.308, 4107.564, 4177.18, 4227.436
1722050966.769,2024-07-26 20:29:26.769,114,false,0.0,4183.077, 4352.692, 4106.282, 4184.744, 4228.718
1722050966.7768,2024-07-26 20:29:26.776,115,false,0.0,4191.282, 4356.923, 4102.82, 4192.692, 4226.923
1722050966.7846,2024-07-26 20:29:26.784,116,false,0.0,4202.564, 4376.667, 4105.513, 4199.103, 4233.077
1722050966.7924,2024-07-26 20:29:26.792,117,false,0.0,4203.974, 4373.461, 4102.051, 4198.205, 4238.333
1722050966.8002,2024-07-26 20:29:26.800,118,false,0.0,4198.846, 4370.513, 4095.385, 4188.461, 4233.333
1722050966.808,2024-07-26 20:29:26.808,119,false,0.0,4196.41, 4378.333, 4103.205, 4182.308, 4235.0
1722050966.8159,2024-07-26 20:29:26.815,120,false,0.0,4194.231, 4361.923, 4107.949, 4185.513, 4243.718
1722050966.8237,2024-07-26 20:29:26.823,121,false,0.0,4195.256, 4348.333, 4097.692, 4189.231, 4244.231
1722050966.8315,2024-07-26 20:29:26.831,122,false,0.0,4203.59, 4368.333, 4100.256, 4191.282, 4251.795
1722050966.8393,2024-07-26 20:29:26.839,123,false,0.0,4209.487, 4376.282, 4112.564, 4195.385, 4270.0
1722050966.8471,2024-07-26 20:29:26.847,124,false,0.0,4207.436, 4364.487, 4106.795, 4195.385, 4268.59
1722050966.8549,2024-07-26 20:29:26.854,125,false,0.0,4198.59, 4363.59, 4097.18, 4184.487, 4248.846
1722050966.8627,2024-07-26 20:29:26.862,126,false,0.0,4184.103, 4357.436, 4097.82, 4172.692, 4238.718
1722050966.8705,2024-07-26 20:29:26.870,127,false,0.0,4182.436, 4348.333, 4095.769, 4174.231, 4241.539
1722050966.8784,2024-07-26 20:29:26.878,0,false,0.0,4200.385, 4356.923, 4096.923, 4184.359, 4249.615
1722050966.8862,2024-07-26 20:29:26.886,1,false,0.0,4204.487, 4354.744, 4099.744, 4183.974, 4251.282
1722050966.894,2024-07-26 20:29:26.894,2,false,0.0,4190.641, 4341.539, 4085.641, 4174.872, 4238.846
1722050966.9018,2024-07-26 20:29:26.901,3,false,0.0,4193.205, 4350.385, 4079.872, 4174.615, 4231.539
1722050966.9096,2024-07-26 20:29:26.909,4,false,0.0,4201.026, 4355.385, 4099.231, 4178.974, 4235.897
1722050966.9174,2024-07-26 20:29:26.917,5,false,0.0,4191.539, 4344.231, 4105.513, 4179.359, 4237.051
1722050966.9252,2024-07-26 20:29:26.925,6,false,0.0,4194.744, 4354.231, 4100.385, 4188.333, 4242.949
1722050966.933,2024-07-26 20:29:26.933,7,false,0.0,4210.128, 4365.128, 4115.0, 4198.077, 4251.667
1722050966.9409,2024-07-26 20:29:26.940,8,false,0.0,4196.923, 4342.564, 4115.256, 4186.795, 4239.615
1722050966.9487,2024-07-26 20:29:26.948,9,false,0.0,4180.513, 4327.436, 4086.41, 4175.0, 4228.077
1722050966.9565,2024-07-26 20:29:26.956,10,false,0.0,4199.615, 4348.59, 4081.539, 4183.846, 4243.718
1722050966.9643,2024-07-26 20:29:26.964,11,false,0.0,4213.974, 4368.718, 4096.795, 4189.103, 4251.795
1722050966.9721,2024-07-26 20:29:26.972,12,false,0.0,4201.282, 4364.487, 4087.436, 4182.82, 4235.385
1722050966.9799,2024-07-26 20:29:26.979,13,false,0.0,4199.872, 4353.205, 4080.641, 4184.744, 4231.539
1722050966.9877,2024-07-26 20:29:26.987,14,false,0.0,4208.333, 4350.385, 4098.205, 4186.282, 4243.59
1722050966.9955,2024-07-26 20:29:26.995,15,false,0.0,4201.795, 4350.128, 4101.923, 4177.949, 4245.897
1722050967.0034,2024-07-26 20:29:27.003,16,false,0.0,4196.923, 4346.282, 4089.744, 4177.82, 4242.82
1722050967.0112,2024-07-26 20:29:27.011,17,false,0.0,4200.641, 4345.256, 4087.949, 4183.974, 4242.18
1722050967.019,2024-07-26 20:29:27.019,18,false,0.0,4199.231, 4347.308, 4086.795, 4182.692, 4241.539
1722050967.0268,2024-07-26 20:29:27.026,19,false,0.0,4208.205, 4345.513, 4088.333, 4187.949, 4250.769
1722050967.0346,2024-07-26 20:29:27.034,20,false,0.0,4230.641, 4350.641, 4111.923, 4200.641, 4266.154
1722050967.0424,2024-07-26 20:29:27.042,21,false,0.0,4236.282, 4371.667, 4135.641, 4202.949, 4270.0
1722050967.0502,2024-07-26 20:29:27.050,22,false,0.0,4227.051, 4385.0, 4135.0, 4201.154, 4267.436
1722050967.058,2024-07-26 20:29:27.058,23,false,0.0,4225.256, 4371.539, 4124.231, 4198.461, 4263.974
1722050967.0659,2024-07-26 20:29:27.065,24,false,0.0,4223.205, 4352.949, 4113.718, 4182.308, 4250.641
1722050967.0737,2024-07-26 20:29:27.073,25,false,0.0,4215.513, 4354.359, 4103.846, 4168.461, 4239.615
1722050967.0815,2024-07-26 20:29:27.081,26,false,0.0,4218.333, 4362.949, 4104.872, 4176.026, 4245.897
1722050967.0893,2024-07-26 20:29:27.089,27,false,0.0,4233.333, 4361.539, 4117.564, 4190.385, 4259.872
1722050967.0971,2024-07-26 20:29:27.097,28,false,0.0,4250.897, 4365.256, 4130.385, 4206.539, 4276.41
1722050967.1049,2024-07-26 20:29:27.104,29,false,0.0,4261.667, 4384.872, 4135.897, 4223.461, 4289.615
1722050967.1127,2024-07-26 20:29:27.112,30,false,0.0,4251.667, 4393.974, 4127.692, 4218.974, 4278.718
1722050967.1205,2024-07-26 20:29:27.120,31,false,0.0,4231.154, 4378.333, 4116.41, 4203.461, 4257.692
1722050967.1284,2024-07-26 20:29:27.128,32,false,0.0,4231.667, 4366.282, 4124.872, 4209.231, 4264.359
1722050967.1362,2024-07-26 20:29:27.136,33,false,0.0,4245.513, 4374.487, 4134.872, 4216.923, 4284.487
1722050967.144,2024-07-26 20:29:27.144,34,false,0.0,4244.487, 4383.974, 4119.615, 4202.692, 4285.0
1722050967.1518,2024-07-26 20:29:27.151,35,false,0.0,4242.949, 4383.846, 4110.0, 4192.051, 4282.436
1722050967.1596,2024-07-26 20:29:27.159,36,false,0.0,4254.744, 4379.744, 4127.82, 4199.359, 4293.333
1722050967.1674,2024-07-26 20:29:27.167,37,false,0.0,4255.128, 4374.487, 4130.641, 4203.718, 4290.256
1722050967.1752,2024-07-26 20:29:27.175,38,false,0.0,4238.718, 4375.897, 4105.641, 4192.82, 4266.282
1722050967.183,2024-07-26 20:29:27.183,39,false,0.0,4228.461, 4385.385, 4095.641, 4179.872, 4254.615
1722050967.1909,2024-07-26 20:29:27.190,40,false,0.0,4231.41, 4384.487, 4108.846, 4186.539, 4264.872
1722050967.1987,2024-07-26 20:29:27.198,41,false,0.0,4239.744, 4372.949, 4116.539, 4203.718, 4275.256
1722050967.2065,2024-07-26 20:29:27.206,42,false,0.0,4240.513, 4374.359, 4112.564, 4200.385, 4277.564
1722050967.2143,2024-07-26 20:29:27.214,43,false,0.0,4231.923, 4385.128, 4107.82, 4193.846, 4278.205
1722050967.2221,2024-07-26 20:29:27.222,44,false,0.0,4236.282, 4386.282, 4109.487, 4214.103, 4279.359
1722050967.2299,2024-07-26 20:29:27.229,45,false,0.0,4252.692, 4383.461, 4118.333, 4228.333, 4282.564
1722050967.2377,2024-07-26 20:29:27.237,46,false,0.0,4252.564, 4383.205, 4124.615, 4215.897, 4286.667
1722050967.2455,2024-07-26 20:29:27.245,47,false,0.0,4242.564, 4378.333, 4122.82, 4207.564, 4282.051
1722050967.2534,2024-07-26 20:29:27.253,48,false,0.0,4244.359, 4372.308, 4120.641, 4202.564, 4269.359
1722050967.2612,2024-07-26 20:29:27.261,49,false,0.0,4246.795, 4371.41, 4119.487, 4187.82, 4264.103
1722050967.269,2024-07-26 20:29:27.269,50,false,0.0,4244.487, 4371.667, 4117.436, 4188.461, 4266.154
1722050967.2768,2024-07-26 20:29:27.276,51,false,0.0,4251.795, 4376.41, 4120.769, 4205.385, 4265.769
1722050967.2846,2024-07-26 20:29:27.284,52,false,0.0,4263.205, 4386.795, 4129.103, 4209.487, 4269.744
1722050967.2924,2024-07-26 20:29:27.292,53,false,0.0,4261.923, 4388.333, 4133.718, 4203.077, 4275.128
1722050967.3002,2024-07-26 20:29:27.300,54,false,0.0,4249.487, 4376.282, 4134.744, 4199.487, 4267.051
1722050967.308,2024-07-26 20:29:27.308,55,false,0.0,4237.949, 4363.718, 4129.744, 4196.923, 4257.18
1722050967.3159,2024-07-26 20:29:27.315,56,false,0.0,4234.231, 4357.051, 4113.846, 4197.18, 4256.154
1722050967.3237,2024-07-26 20:29:27.323,57,false,0.0,4238.333, 4354.231, 4104.231, 4200.897, 4253.461
1722050967.3315,2024-07-26 20:29:27.331,58,false,0.0,4245.128, 4357.949, 4114.744, 4202.949, 4254.231
1722050967.3393,2024-07-26 20:29:27.339,59,false,0.0,4246.026, 4364.744, 4122.436, 4200.256, 4258.461
1722050967.3471,2024-07-26 20:29:27.347,60,false,0.0,4240.0, 4365.385, 4120.769, 4192.308, 4249.487
1722050967.3549,2024-07-26 20:29:27.354,61,false,0.0,4242.308, 4366.026, 4140.769, 4194.231, 4248.846
1722050967.3627,2024-07-26 20:29:27.362,62,false,0.0,4254.487, 4377.051, 4168.718, 4210.256, 4269.872
1722050967.3705,2024-07-26 20:29:27.370,63,false,0.0,4254.103, 4386.795, 4160.128, 4210.256, 4271.539
1722050967.3784,2024-07-26 20:29:27.378,64,false,0.0,4243.59, 4380.0, 4136.667, 4195.385, 4256.282
1722050967.3862,2024-07-26 20:29:27.386,65,false,0.0,4245.769, 4365.769, 4131.026, 4200.385, 4260.641
1722050967.394,2024-07-26 20:29:27.394,66,false,0.0,4250.513, 4360.897, 4118.205, 4206.154, 4261.154
1722050967.4018,2024-07-26 20:29:27.401,67,false,0.0,4242.18, 4366.539, 4100.256, 4190.128, 4248.077
1722050967.4096,2024-07-26 20:29:27.409,68,false,0.0,4238.846, 4374.231, 4109.359, 4191.026, 4256.154
1722050967.4174,2024-07-26 20:29:27.417,69,false,0.0,4249.359, 4378.59, 4122.949, 4212.949, 4270.641
1722050967.4252,2024-07-26 20:29:27.425,70,false,0.0,4256.923, 4379.487, 4121.795, 4215.769, 4270.385
1722050967.433,2024-07-26 20:29:27.433,71,false,0.0,4260.385, 4380.897, 4132.949, 4214.103, 4279.872
1722050967.4409,2024-07-26 20:29:27.440,72,false,0.0,4266.026, 4384.487, 4144.231, 4224.359, 4289.103
1722050967.4487,2024-07-26 20:29:27.448,73,false,0.0,4264.231, 4386.41, 4132.82, 4218.077, 4278.59
1722050967.4565,2024-07-26 20:29:27.456,74,false,0.0,4255.0, 4384.744, 4127.308, 4202.949, 4278.333
1722050967.4643,2024-07-26 20:29:27.464,75,false,0.0,4248.718, 4376.539, 4133.333, 4202.18, 4284.487
1722050967.4721,2024-07-26 20:29:27.472,76,false,0.0,4236.667, 4361.539, 4125.0, 4195.385, 4261.795
1722050967.4799,2024-07-26 20:29:27.479,77,false,0.0,4219.103, 4354.744, 4115.769, 4181.41, 4238.718
1722050967.4877,2024-07-26 20:29:27.487,78,false,0.0,4222.949, 4367.949, 4118.718, 4182.692, 4248.333
1722050967.4955,2024-07-26 20:29:27.495,79,false,0.0,4243.205, 4377.436, 4115.513, 4185.0, 4259.744
1722050967.5034,2024-07-26 20:29:27.503,80,false,0.0,4242.436, 4364.359, 4105.641, 4175.0, 4253.077
1722050967.5112,2024-07-26 20:29:27.511,81,false,0.0,4231.795, 4360.769, 4105.128, 4174.872, 4251.154
1722050967.519,2024-07-26 20:29:27.519,82,false,0.0,4248.077, 4387.949, 4121.41, 4191.026, 4266.923
1722050967.5268,2024-07-26 20:29:27.526,83,false,0.0,4265.513, 4403.077, 4140.385, 4202.051, 4285.256
1722050967.5346,2024-07-26 20:29:27.534,84,false,0.0,4248.846, 4380.0, 4133.333, 4199.615, 4284.872
1722050967.5424,2024-07-26 20:29:27.542,85,false,0.0,4228.205, 4358.077, 4111.154, 4194.872, 4268.718
1722050967.5502,2024-07-26 20:29:27.550,86,false,0.0,4229.103, 4356.667, 4110.641, 4193.974, 4261.026
1722050967.558,2024-07-26 20:29:27.558,87,false,0.0,4228.974, 4350.0, 4114.744, 4189.103, 4262.949
1722050967.5659,2024-07-26 20:29:27.565,88,false,0.0,4222.949, 4344.487, 4101.923, 4178.461, 4257.949
1722050967.5737,2024-07-26 20:29:27.573,89,false,0.0,4228.205, 4365.385, 4105.897, 4171.923, 4254.872
1722050967.5815,2024-07-26 20:29:27.581,90,false,0.0,4238.974, 4391.026, 4133.461, 4178.333, 4267.18
1722050967.5893,2024-07-26 20:29:27.589,91,false,0.0,4243.974, 4392.051, 4143.077, 4195.256, 4277.18
1722050967.5971,2024-07-26 20:29:27.597,92,false,0.0,4242.564, 4378.461, 4127.18, 4204.231, 4269.103
1722050967.6049,2024-07-26 20:29:27.604,93,false,0.0,4235.897, 4368.59, 4112.308, 4193.59, 4258.461
1722050967.6127,2024-07-26 20:29:27.612,94,false,0.0,4233.333, 4365.256, 4109.103, 4182.82, 4258.846
1722050967.6205,2024-07-26 20:29:27.620,95,false,0.0,4241.026, 4369.487, 4112.308, 4186.795, 4259.231
1722050967.6284,2024-07-26 20:29:27.628,96,false,0.0,4247.308, 4379.359, 4119.744, 4190.256, 4258.077
1722050967.6362,2024-07-26 20:29:27.636,97,false,0.0,4247.18, 4384.103, 4128.846, 4189.615, 4267.82
1722050967.644,2024-07-26 20:29:27.644,98,false,0.0,4245.641, 4376.282, 4128.205, 4191.026, 4275.128
1722050967.6518,2024-07-26 20:29:27.651,99,false,0.0,4241.795, 4363.205, 4116.667, 4186.026, 4267.564
1722050967.6596,2024-07-26 20:29:27.659,100,false,0.0,4241.539, 4360.513, 4113.846, 4182.949, 4268.974
1722050967.6674,2024-07-26 20:29:27.667,101,false,0.0,4249.231, 4369.103, 4121.41, 4194.103, 4279.744
1722050967.6752,2024-07-26 20:29:27.675,102,false,0.0,4249.487, 4374.744, 4119.487, 4196.41, 4269.872
1722050967.683,2024-07-26 20:29:27.683,103,false,0.0,4241.154, 4374.359, 4109.872, 4182.82, 4254.359
1722050967.6909,2024-07-26 20:29:27.690,104,false,0.0,4243.205, 4375.385, 4104.744, 4181.026, 4260.0
1722050967.6987,2024-07-26 20:29:27.698,105,false,0.0,4249.744, 4370.256, 4101.026, 4183.461, 4265.897
1722050967.7065,2024-07-26 20:29:27.706,106,false,0.0,4241.154, 4353.205, 4097.18, 4174.744, 4261.539
1722050967.7143,2024-07-26 20:29:27.714,107,false,0.0,4230.513, 4345.256, 4097.564, 4181.41, 4264.103
1722050967.7221,2024-07-26 20:29:27.722,108,false,0.0,4236.026, 4354.487, 4100.128, 4197.692, 4265.641
1722050967.7299,2024-07-26 20:29:27.729,109,false,0.0,4239.487, 4353.333, 4101.026, 4187.051, 4257.18
1722050967.7377,2024-07-26 20:29:27.737,110,false,0.0,4232.18, 4343.461, 4100.641, 4174.359, 4252.18
1722050967.7455,2024-07-26 20:29:27.745,111,false,0.0,4235.256, 4356.667, 4105.256, 4184.872, 4252.308
1722050967.7534,2024-07-26 20:29:27.753,112,false,0.0,4245.513, 4373.077, 4113.333, 4185.385, 4254.103
1722050967.7612,2024-07-26 20:29:27.761,113,false,0.0,4244.744, 4362.692, 4112.18, 4178.077, 4260.769
1722050967.769,2024-07-26 20:29:27.769,114,false,0.0,4242.82, 4356.282, 4103.461, 4188.461, 4262.18
1722050967.7768,2024-07-26 20:29:27.776,115,false,0.0,4241.923, 4367.308, 4097.82, 4189.103, 4252.051
1722050967.7846,2024-07-26 20:29:27.784,116,false,0.0,4236.282, 4365.769, 4097.051, 4181.923, 4250.256
1722050967.7924,2024-07-26 20:29:27.792,117,false,0.0,4244.872, 4360.897, 4105.128, 4203.077, 4265.0
1722050967.8002,2024-07-26 20:29:27.800,118,false,0.0,4257.692, 4368.59, 4112.051, 4214.487, 4271.41
1722050967.808,2024-07-26 20:29:27.808,119,false,0.0,4240.385, 4362.18, 4097.949, 4186.026, 4258.333
1722050967.8159,2024-07-26 20:29:27.815,120,false,0.0,4223.461, 4346.923, 4084.359, 4173.59, 4254.487
