Time,Timestamp,Counter,Interpolated,Contact Quality,AF3,T7,Pz,T8,AF4
1722051821.8002,2024-07-26 20:43:41.800,118,false,0.0,4211.923, 4347.051, 4117.051, 4181.154, 4200.385
1722051821.808,2024-07-26 20:43:41.808,119,false,0.0,4221.923, 4339.872, 4115.0, 4188.333, 4209.487
1722051821.8159,2024-07-26 20:43:41.815,120,false,0.0,4226.667, 4343.077, 4116.154, 4181.41, 4206.026
1722051821.8237,2024-07-26 20:43:41.823,121,false,0.0,4225.769, 4359.487, 4126.282, 4175.897, 4204.103
1722051821.8315,2024-07-26 20:43:41.831,122,false,0.0,4218.333, 4358.077, 4124.744, 4176.539, 4207.18
1722051821.8393,2024-07-26 20:43:41.839,123,false,0.0,4202.82, 4338.461, 4105.641, 4169.231, 4199.359
1722051821.8471,2024-07-26 20:43:41.847,124,false,0.0,4198.461, 4336.026, 4090.897, 4162.564, 4193.205
1722051821.8549,2024-07-26 20:43:41.854,125,false,0.0,4208.974, 4343.205, 4091.282, 4169.103, 4205.769
1722051821.8627,2024-07-26 20:43:41.862,126,false,0.0,4211.795, 4337.18, 4092.949, 4180.128, 4215.897
1722051821.8705,2024-07-26 20:43:41.870,127,false,0.0,4208.205, 4342.436, 4091.795, 4185.385, 4209.103
1722051821.8784,2024-07-26 20:43:41.878,0,false,0.0,4209.872, 4360.385, 4094.872, 4178.846, 4202.18
1722051821.8862,2024-07-26 20:43:41.886,1,false,0.0,4207.436, 4357.18, 4099.744, 4168.718, 4201.41
1722051821.894,2024-07-26 20:43:41.894,2,false,0.0,4207.436, 4350.641, 4104.872, 4178.461, 4202.564
1722051821.9018,2024-07-26 20:43:41.901,3,false,0.0,4221.41, 4360.769, 4109.872, 4199.487, 4211.539
1722051821.9096,2024-07-26 20:43:41.909,4,false,0.0,4233.077, 4359.359, 4106.795, 4204.744, 4226.154
1722051821.9174,2024-07-26 20:43:41.917,5,false,0.0,4233.59, 4353.077, 4097.82, 4204.615, 4230.513
1722051821.9252,2024-07-26 20:43:41.925,6,false,0.0,4231.026, 4363.333, 4095.128, 4206.667, 4222.18
1722051821.933,2024-07-26 20:43:41.933,7,false,0.0,4222.82, 4363.718, 4095.0, 4195.641, 4215.513
1722051821.9409,2024-07-26 20:43:41.940,8,false,0.0,4215.0, 4349.615, 4089.487, 4182.949, 4216.795
1722051821.9487,2024-07-26 20:43:41.948,9,false,0.0,4220.256, 4350.641, 4085.256, 4180.256, 4218.461
1722051821.9565,2024-07-26 20:43:41.956,10,false,0.0,4225.769, 4359.744, 4089.487, 4173.077, 4217.82
1722051821.9643,2024-07-26 20:43:41.964,11,false,0.0,4221.026, 4360.897, 4096.795, 4170.897, 4219.487
1722051821.9721,2024-07-26 20:43:41.972,12,false,0.0,4221.923, 4360.513, 4101.282, 4186.539, 4221.923
1722051821.9799,2024-07-26 20:43:41.979,13,false,0.0,4232.564, 4360.128, 4104.744, 4196.026, 4224.744
1722051821.9877,2024-07-26 20:43:41.987,14,false,0.0,4234.615, 4357.051, 4105.769, 4189.615, 4228.461
1722051821.9955,2024-07-26 20:43:41.995,15,false,0.0,4227.692, 4351.41, 4098.59, 4184.231, 4224.615
1722051822.0034,2024-07-26 20:43:42.003,16,false,0.0,4226.539, 4349.359, 4089.615, 4178.718, 4217.564
1722051822.0112,2024-07-26 20:43:42.011,17,false,0.0,4224.487, 4355.256, 4085.385, 4169.487, 4222.82
1722051822.019,2024-07-26 20:43:42.019,18,false,0.0,4213.333, 4351.667, 4075.897, 4166.795, 4231.41
1722051822.0268,2024-07-26 20:43:42.026,19,false,0.0,4210.513, 4338.333, 4067.949, 4171.154, 4231.282
1722051822.0346,2024-07-26 20:43:42.034,20,false,0.0,4222.308, 4347.949, 4082.436, 4179.615, 4237.82
1722051822.0424,2024-07-26 20:43:42.042,21,false,0.0,4228.974, 4368.59, 4102.051, 4190.256, 4250.769
1722051822.0502,2024-07-26 20:43:42.050,22,false,0.0,4225.128, 4365.0, 4097.564, 4187.436, 4243.461
1722051822.058,2024-07-26 20:43:42.058,23,false,0.0,4221.41, 4360.256, 4089.615, 4171.41, 4225.641
1722051822.0659,2024-07-26 20:43:42.065,24,false,0.0,4221.795, 4371.154, 4102.051, 4171.795, 4231.795
1722051822.0737,2024-07-26 20:43:42.073,25,false,0.0,4225.513, 4369.744, 4110.128, 4187.692, 4247.949
1722051822.0815,2024-07-26 20:43:42.081,26,false,0.0,4226.154, 4360.0, 4095.641, 4185.0, 4242.051
1722051822.0893,2024-07-26 20:43:42.089,27,false,0.0,4221.41, 4362.051, 4082.564, 4172.564, 4234.615
1722051822.0971,2024-07-26 20:43:42.097,28,false,0.0,4222.18, 4363.333, 4084.487, 4179.359, 4245.128
1722051822.1049,2024-07-26 20:43:42.104,29,false,0.0,4223.974, 4361.282, 4085.256, 4182.436, 4243.077
1722051822.1127,2024-07-26 20:43:42.112,30,false,0.0,4214.359, 4359.872, 4083.461, 4166.026, 4223.333
1722051822.1205,2024-07-26 20:43:42.120,31,false,0.0,4210.385, 4348.974, 4092.564, 4169.615, 4225.128
1722051822.1284,2024-07-26 20:43:42.128,32,false,0.0,4221.923, 4341.154, 4103.974, 4193.718, 4245.385
1722051822.1362,2024-07-26 20:43:42.136,33,false,0.0,4226.026, 4349.487, 4103.974, 4194.744, 4248.461
1722051822.144,2024-07-26 20:43:42.144,34,false,0.0,4222.051, 4355.513, 4101.539, 4186.026, 4238.461
1722051822.1518,2024-07-26 20:43:42.151,35,false,0.0,4227.82, 4358.077, 4103.718, 4194.231, 4234.744
1722051822.1596,2024-07-26 20:43:42.159,36,false,0.0,4233.205, 4369.359, 4105.897, 4194.615, 4236.41
1722051822.1674,2024-07-26 20:43:42.167,37,false,0.0,4233.461, 4374.487, 4109.872, 4186.667, 4242.692
1722051822.1752,2024-07-26 20:43:42.175,38,false,0.0,4241.41, 4366.539, 4113.333, 4193.846, 4248.59
1722051822.183,2024-07-26 20:43:42.183,39,false,0.0,4246.282, 4359.744, 4107.692, 4195.513, 4243.59
1722051822.1909,2024-07-26 20:43:42.190,40,false,0.0,4241.282, 4358.59, 4102.82, 4182.436, 4237.051
1722051822.1987,2024-07-26 20:43:42.198,41,false,0.0,4247.18, 4363.718, 4109.615, 4181.41, 4240.641
1722051822.2065,2024-07-26 20:43:42.206,42,false,0.0,4257.564, 4373.333, 4117.949, 4185.256, 4245.513
1722051822.2143,2024-07-26 20:43:42.214,43,false,0.0,4250.641, 4374.231, 4117.436, 4181.923, 4247.308
1722051822.2221,2024-07-26 20:43:42.222,44,false,0.0,4241.795, 4368.974, 4110.513, 4188.846, 4245.641
1722051822.2299,2024-07-26 20:43:42.229,45,false,0.0,4243.974, 4369.744, 4102.051, 4197.949, 4235.513
1722051822.2377,2024-07-26 20:43:42.237,46,false,0.0,4243.333, 4369.744, 4099.103, 4198.974, 4229.103
1722051822.2455,2024-07-26 20:43:42.245,47,false,0.0,4244.359, 4365.256, 4104.487, 4205.641, 4236.667
1722051822.2534,2024-07-26 20:43:42.253,48,false,0.0,4249.231, 4360.897, 4107.18, 4202.051, 4238.333
1722051822.2612,2024-07-26 20:43:42.261,49,false,0.0,4240.0, 4353.846, 4100.385, 4182.18, 4227.949
1722051822.269,2024-07-26 20:43:42.269,50,false,0.0,4228.974, 4352.051, 4097.564, 4180.0, 4225.385
1722051822.2768,2024-07-26 20:43:42.276,51,false,0.0,4237.436, 4362.436, 4108.461, 4187.949, 4228.59
1722051822.2846,2024-07-26 20:43:42.284,52,false,0.0,4247.692, 4366.667, 4121.282, 4185.256, 4227.82
1722051822.2924,2024-07-26 20:43:42.292,53,false,0.0,4248.59, 4364.103, 4124.744, 4195.256, 4230.513
1722051822.3002,2024-07-26 20:43:42.300,54,false,0.0,4250.256, 4371.282, 4122.564, 4205.641, 4233.846
1722051822.308,2024-07-26 20:43:42.308,55,false,0.0,4245.128, 4371.154, 4117.051, 4187.564, 4229.872
1722051822.3159,2024-07-26 20:43:42.315,56,false,0.0,4229.231, 4352.692, 4104.231, 4175.897, 4222.564
1722051822.3237,2024-07-26 20:43:42.323,57,false,0.0,4216.154, 4343.974, 4089.359, 4183.718, 4208.846
1722051822.3315,2024-07-26 20:43:42.331,58,false,0.0,4210.897, 4348.333, 4082.692, 4176.795, 4191.923
1722051822.3393,2024-07-26 20:43:42.339,59,false,0.0,4215.513, 4349.615, 4085.256, 4164.744, 4190.641
1722051822.3471,2024-07-26 20:43:42.347,60,false,0.0,4223.974, 4355.385, 4089.615, 4165.897, 4198.461
1722051822.3549,2024-07-26 20:43:42.354,61,false,0.0,4220.385, 4361.154, 4087.179, 4164.359, 4193.718
1722051822.3627,2024-07-26 20:43:42.362,62,false,0.0,4213.974, 4354.615, 4080.769, 4160.897, 4186.41
1722051822.3705,2024-07-26 20:43:42.370,63,false,0.0,4221.795, 4350.128, 4082.564, 4164.744, 4195.769
1722051822.3784,2024-07-26 20:43:42.378,64,false,0.0,4230.0, 4346.154, 4087.436, 4168.333, 4209.744
1722051822.3862,2024-07-26 20:43:42.386,65,false,0.0,4229.231, 4333.333, 4083.333, 4168.974, 4207.18
1722051822.394,2024-07-26 20:43:42.394,66,false,0.0,4230.385, 4334.744, 4081.667, 4170.128, 4199.103
1722051822.4018,2024-07-26 20:43:42.401,67,false,0.0,4234.231, 4347.308, 4087.692, 4175.769, 4204.359
1722051822.4096,2024-07-26 20:43:42.409,68,false,0.0,4234.615, 4342.051, 4080.897, 4177.82, 4205.641
1722051822.4174,2024-07-26 20:43:42.417,69,false,0.0,4230.385, 4336.026, 4065.897, 4164.487, 4192.692
1722051822.4252,2024-07-26 20:43:42.425,70,false,0.0,4227.308, 4343.077, 4070.128, 4162.308, 4197.18
1722051822.433,2024-07-26 20:43:42.433,71,false,0.0,4233.205, 4340.513, 4082.179, 4181.026, 4218.205
1722051822.4409,2024-07-26 20:43:42.440,72,false,0.0,4239.872, 4337.308, 4078.333, 4178.974, 4218.077
1722051822.4487,2024-07-26 20:43:42.448,73,false,0.0,4240.641, 4350.897, 4074.615, 4168.846, 4211.026
1722051822.4565,2024-07-26 20:43:42.456,74,false,0.0,4247.949, 4359.487, 4085.385, 4187.308, 4220.513
1722051822.4643,2024-07-26 20:43:42.464,75,false,0.0,4252.436, 4354.231, 4096.667, 4193.205, 4217.949
1722051822.4721,2024-07-26 20:43:42.472,76,false,0.0,4238.461, 4349.744, 4102.308, 4172.436, 4201.923
1722051822.4799,2024-07-26 20:43:42.479,77,false,0.0,4232.308, 4348.974, 4105.0, 4173.974, 4206.795
1722051822.4877,2024-07-26 20:43:42.487,78,false,0.0,4244.487, 4351.795, 4100.897, 4183.718, 4220.769
1722051822.4955,2024-07-26 20:43:42.495,79,false,0.0,4241.154, 4352.82, 4092.949, 4170.769, 4216.667
1722051822.5034,2024-07-26 20:43:42.503,80,false,0.0,4226.41, 4345.128, 4087.821, 4164.744, 4205.385
1722051822.5112,2024-07-26 20:43:42.511,81,false,0.0,4232.564, 4344.744, 4089.744, 4173.59, 4202.692
1722051822.519,2024-07-26 20:43:42.519,82,false,0.0,4245.641, 4356.923, 4101.154, 4174.103, 4211.026
1722051822.5268,2024-07-26 20:43:42.526,83,false,0.0,4242.18, 4359.103, 4103.077, 4167.564, 4221.923
1722051822.5346,2024-07-26 20:43:42.534,84,false,0.0,4235.641, 4351.41, 4087.436, 4163.718, 4220.385
1722051822.5424,2024-07-26 20:43:42.542,85,false,0.0,4240.641, 4351.667, 4085.513, 4169.487, 4216.282
1722051822.5502,2024-07-26 20:43:42.550,86,false,0.0,4246.026, 4349.103, 4097.564, 4180.641, 4222.949
1722051822.558,2024-07-26 20:43:42.558,87,false,0.0,4241.282, 4336.026, 4088.846, 4177.82, 4220.897
1722051822.5659,2024-07-26 20:43:42.565,88,false,0.0,4236.923, 4335.513, 4075.0, 4167.436, 4207.564
1722051822.5737,2024-07-26 20:43:42.573,89,false,0.0,4241.795, 4350.128, 4082.436, 4166.41, 4209.359
1722051822.5815,2024-07-26 20:43:42.581,90,false,0.0,4245.641, 4355.256, 4088.333, 4164.103, 4217.564
1722051822.5893,2024-07-26 20:43:42.589,91,false,0.0,4241.282, 4349.231, 4086.795, 4160.513, 4212.949
1722051822.5971,2024-07-26 20:43:42.597,92,false,0.0,4236.282, 4347.308, 4095.385, 4170.0, 4213.333
1722051822.6049,2024-07-26 20:43:42.604,93,false,0.0,4236.923, 4352.051, 4100.256, 4181.923, 4223.333
1722051822.6127,2024-07-26 20:43:42.612,94,false,0.0,4241.026, 4357.82, 4091.41, 4177.051, 4220.513
1722051822.6205,2024-07-26 20:43:42.620,95,false,0.0,4238.718, 4355.385, 4083.718, 4160.0, 4209.487
1722051822.6284,2024-07-26 20:43:42.628,96,false,0.0,4230.641, 4348.333, 4081.282, 4154.231, 4209.103
1722051822.6362,2024-07-26 20:43:42.636,97,false,0.0,4230.256, 4354.103, 4084.231, 4161.795, 4210.256
1722051822.644,2024-07-26 20:43:42.644,98,false,0.0,4228.59, 4361.154, 4089.103, 4157.692, 4202.564
1722051822.6518,2024-07-26 20:43:42.651,99,false,0.0,4219.487, 4349.615, 4085.128, 4150.256, 4198.974
1722051822.6596,2024-07-26 20:43:42.659,100,false,0.0,4228.461, 4344.615, 4083.59, 4166.154, 4207.564
1722051822.6674,2024-07-26 20:43:42.667,101,false,0.0,4249.872, 4362.18, 4095.256, 4180.256, 4216.282
1722051822.6752,2024-07-26 20:43:42.675,102,false,0.0,4250.769, 4368.205, 4099.487, 4173.205, 4215.513
1722051822.683,2024-07-26 20:43:42.683,103,false,0.0,4245.256, 4356.41, 4092.179, 4173.59, 4211.795
1722051822.6909,2024-07-26 20:43:42.690,104,false,0.0,4251.026, 4354.487, 4091.41, 4179.359, 4213.205
1722051822.6987,2024-07-26 20:43:42.698,105,false,0.0,4245.897, 4356.154, 4088.59, 4173.077, 4212.82
1722051822.7065,2024-07-26 20:43:42.706,106,false,0.0,4230.128, 4347.436, 4071.026, 4170.256, 4199.103
1722051822.7143,2024-07-26 20:43:42.714,107,false,0.0,4227.308, 4347.692, 4060.897, 4173.077, 4187.051
1722051822.7221,2024-07-26 20:43:42.722,108,false,0.0,4236.154, 4362.18, 4072.179, 4173.974, 4197.436
1722051822.7299,2024-07-26 20:43:42.729,109,false,0.0,4240.256, 4364.231, 4080.769, 4176.41, 4208.205
1722051822.7377,2024-07-26 20:43:42.737,110,false,0.0,4232.436, 4347.308, 4072.564, 4170.128, 4199.359
1722051822.7455,2024-07-26 20:43:42.745,111,false,0.0,4229.615, 4340.769, 4070.897, 4165.513, 4198.718
1722051822.7534,2024-07-26 20:43:42.753,112,false,0.0,4243.974, 4355.385, 4083.077, 4182.051, 4209.744
1722051822.7612,2024-07-26 20:43:42.761,113,false,0.0,4243.59, 4359.744, 4084.103, 4185.641, 4198.077
1722051822.769,2024-07-26 20:43:42.769,114,false,0.0,4221.282, 4346.539, 4076.795, 4163.846, 4180.385
1722051822.7768,2024-07-26 20:43:42.776,115,false,0.0,4221.154, 4349.615, 4085.641, 4162.308, 4190.385
1722051822.7846,2024-07-26 20:43:42.784,116,false,0.0,4235.128, 4359.872, 4093.718, 4175.0, 4204.359
1722051822.7924,2024-07-26 20:43:42.792,117,false,0.0,4224.487, 4346.154, 4078.461, 4171.282, 4200.769
1722051822.8002,2024-07-26 20:43:42.800,118,false,0.0,4218.077, 4340.128, 4070.128, 4173.846, 4199.103
1722051822.808,2024-07-26 20:43:42.808,119,false,0.0,4234.359, 4361.026, 4084.872, 4187.18, 4206.154
1722051822.8159,2024-07-26 20:43:42.815,120,false,0.0,4234.487, 4360.641, 4085.769, 4184.487, 4209.103
1722051822.8237,2024-07-26 20:43:42.823,121,false,0.0,4222.82, 4342.692, 4072.436, 4176.795, 4207.18
1722051822.8315,2024-07-26 20:43:42.831,122,false,0.0,4233.718, 4353.333, 4085.256, 4179.487, 4212.692
1722051822.8393,2024-07-26 20:43:42.839,123,false,0.0,4247.82, 4362.564, 4109.103, 4180.385, 4223.59
1722051822.8471,2024-07-26 20:43:42.847,124,false,0.0,4240.256, 4345.897, 4105.769, 4171.795, 4218.333
1722051822.8549,2024-07-26 20:43:42.854,125,false,0.0,4226.667, 4345.256, 4095.256, 4159.103, 4203.205
1722051822.8627,2024-07-26 20:43:42.862,126,false,0.0,4224.359, 4357.692, 4100.897, 4160.256, 4210.128
1722051822.8705,2024-07-26 20:43:42.870,127,false,0.0,4234.231, 4355.769, 4105.897, 4177.436, 4226.282
1722051822.8784,2024-07-26 20:43:42.878,0,false,0.0,4242.051, 4355.256, 4103.077, 4178.974, 4217.692
1722051822.8862,2024-07-26 20:43:42.886,1,false,0.0,4235.897, 4349.615, 4097.949, 4165.256, 4202.82
1722051822.894,2024-07-26 20:43:42.894,2,false,0.0,4233.718, 4332.564, 4089.487, 4170.128, 4210.641
1722051822.9018,2024-07-26 20:43:42.901,3,false,0.0,4245.513, 4343.333, 4089.103, 4178.461, 4232.051
1722051822.9096,2024-07-26 20:43:42.909,4,false,0.0,4245.641, 4362.82, 4099.359, 4171.667, 4249.103
1722051822.9174,2024-07-26 20:43:42.917,5,false,0.0,4233.077, 4344.615, 4100.0, 4176.667, 4251.154
1722051822.9252,2024-07-26 20:43:42.925,6,false,0.0,4232.949, 4330.897, 4090.769, 4188.461, 4242.564
1722051822.933,2024-07-26 20:43:42.933,7,false,0.0,4237.82, 4347.436, 4091.154, 4183.205, 4242.692
1722051822.9409,2024-07-26 20:43:42.940,8,false,0.0,4232.436, 4348.205, 4098.974, 4182.436, 4247.82
1722051822.9487,2024-07-26 20:43:42.948,9,false,0.0,4230.0, 4338.077, 4097.18, 4191.282, 4241.795
1722051822.9565,2024-07-26 20:43:42.956,10,false,0.0,4233.461, 4342.564, 4083.846, 4183.846, 4235.513
1722051822.9643,2024-07-26 20:43:42.964,11,false,0.0,4230.128, 4339.103, 4077.821, 4174.359, 4237.18
1722051822.9721,2024-07-26 20:43:42.972,12,false,0.0,4228.974, 4337.436, 4093.077, 4186.795, 4239.359
1722051822.9799,2024-07-26 20:43:42.979,13,false,0.0,4240.0, 4356.282, 4110.641, 4198.461, 4245.385
1722051822.9877,2024-07-26 20:43:42.987,14,false,0.0,4241.026, 4358.077, 4107.18, 4185.513, 4247.308
1722051822.9955,2024-07-26 20:43:42.995,15,false,0.0,4225.897, 4344.615, 4100.128, 4170.0, 4239.103
1722051823.0034,2024-07-26 20:43:43.003,16,false,0.0,4229.103, 4355.897, 4116.41, 4181.282, 4246.282
1722051823.0112,2024-07-26 20:43:43.011,17,false,0.0,4247.949, 4365.385, 4136.795, 4199.359, 4261.41
1722051823.019,2024-07-26 20:43:43.019,18,false,0.0,4242.949, 4353.974, 4136.667, 4195.0, 4250.897
1722051823.0268,2024-07-26 20:43:43.026,19,false,0.0,4231.795, 4361.026, 4131.923, 4196.923, 4244.231
1722051823.0346,2024-07-26 20:43:43.034,20,false,0.0,4241.923, 4372.949, 4130.769, 4219.103, 4258.846
1722051823.0424,2024-07-26 20:43:43.042,21,false,0.0,4238.846, 4355.128, 4116.154, 4213.846, 4249.615
1722051823.0502,2024-07-26 20:43:43.050,22,false,0.0,4221.539, 4345.128, 4102.949, 4190.128, 4230.513
1722051823.058,2024-07-26 20:43:43.058,23,false,0.0,4227.692, 4355.641, 4111.795, 4198.205, 4244.231
1722051823.0659,2024-07-26 20:43:43.065,24,false,0.0,4234.103, 4348.974, 4116.41, 4207.308, 4250.641
1722051823.0737,2024-07-26 20:43:43.073,25,false,0.0,4223.59, 4345.385, 4108.205, 4189.359, 4234.359
1722051823.0815,2024-07-26 20:43:43.081,26,false,0.0,4231.41, 4366.154, 4115.513, 4187.692, 4242.308
1722051823.0893,2024-07-26 20:43:43.089,27,false,0.0,4245.128, 4368.461, 4126.923, 4202.436, 4256.667
1722051823.0971,2024-07-26 20:43:43.097,28,false,0.0,4237.436, 4352.564, 4120.256, 4196.282, 4244.103
1722051823.1049,2024-07-26 20:43:43.104,29,false,0.0,4235.256, 4355.128, 4116.539, 4186.282, 4236.667
1722051823.1127,2024-07-26 20:43:43.112,30,false,0.0,4242.308, 4358.333, 4124.615, 4192.82, 4243.59
1722051823.1205,2024-07-26 20:43:43.120,31,false,0.0,4240.0, 4352.949, 4127.949, 4200.769, 4244.487
1722051823.1284,2024-07-26 20:43:43.128,32,false,0.0,4239.359, 4360.641, 4125.641, 4198.59, 4244.359
1722051823.1362,2024-07-26 20:43:43.136,33,false,0.0,4231.41, 4359.872, 4116.667, 4185.641, 4238.205
1722051823.144,2024-07-26 20:43:43.144,34,false,0.0,4213.205, 4343.077, 4104.231, 4180.513, 4225.641
1722051823.1518,2024-07-26 20:43:43.151,35,false,0.0,4221.539, 4348.333, 4107.692, 4195.897, 4230.897
1722051823.1596,2024-07-26 20:43:43.159,36,false,0.0,4243.59, 4368.205, 4119.231, 4203.461, 4243.205
1722051823.1674,2024-07-26 20:43:43.167,37,false,0.0,4241.026, 4371.539, 4121.41, 4196.539, 4240.385
1722051823.1752,2024-07-26 20:43:43.175,38,false,0.0,4236.41, 4370.0, 4125.385, 4200.641, 4237.692
1722051823.183,2024-07-26 20:43:43.183,39,false,0.0,4237.18, 4368.077, 4125.769, 4200.128, 4237.18
1722051823.1909,2024-07-26 20:43:43.190,40,false,0.0,4219.615, 4354.487, 4105.385, 4184.103, 4227.18
1722051823.1987,2024-07-26 20:43:43.198,41,false,0.0,4212.051, 4346.154, 4085.641, 4186.282, 4223.205
1722051823.2065,2024-07-26 20:43:43.206,42,false,0.0,4231.667, 4353.077, 4086.41, 4201.795, 4231.923
1722051823.2143,2024-07-26 20:43:43.214,43,false,0.0,4242.18, 4360.641, 4092.308, 4202.308, 4241.41
1722051823.2221,2024-07-26 20:43:43.222,44,false,0.0,4244.103, 4364.615, 4096.667, 4198.461, 4248.461
1722051823.2299,2024-07-26 20:43:43.229,45,false,0.0,4253.205, 4367.051, 4102.692, 4193.077, 4247.82
1722051823.2377,2024-07-26 20:43:43.237,46,false,0.0,4247.308, 4363.974, 4106.026, 4179.359, 4243.333
1722051823.2455,2024-07-26 20:43:43.245,47,false,0.0,4233.077, 4357.051, 4107.692, 4174.872, 4251.154
1722051823.2534,2024-07-26 20:43:43.253,48,false,0.0,4237.692, 4355.256, 4111.154, 4181.282, 4259.231
1722051823.2612,2024-07-26 20:43:43.261,49,false,0.0,4244.744, 4359.487, 4114.359, 4185.769, 4253.461
1722051823.269,2024-07-26 20:43:43.269,50,false,0.0,4240.513, 4355.0, 4111.923, 4192.692, 4249.487
1722051823.2768,2024-07-26 20:43:43.276,51,false,0.0,4238.077, 4344.359, 4103.333, 4194.744, 4248.974
1722051823.2846,2024-07-26 20:43:43.284,52,false,0.0,4235.897, 4351.539, 4104.231, 4186.923, 4240.641
1722051823.2924,2024-07-26 20:43:43.292,53,false,0.0,4233.205, 4365.513, 4115.897, 4187.82, 4238.718
1722051823.3002,2024-07-26 20:43:43.300,54,false,0.0,4239.103, 4358.333, 4114.359, 4194.615, 4249.487
1722051823.308,2024-07-26 20:43:43.308,55,false,0.0,4245.513, 4350.897, 4107.564, 4197.949, 4257.436
1722051823.3159,2024-07-26 20:43:43.315,56,false,0.0,4244.359, 4361.154, 4114.231, 4207.949, 4255.641
1722051823.3237,2024-07-26 20:43:43.323,57,false,0.0,4238.461, 4363.846, 4112.82, 4210.256, 4245.0
1722051823.3315,2024-07-26 20:43:43.331,58,false,0.0,4228.461, 4355.0, 4101.41, 4190.256, 4235.513
1722051823.3393,2024-07-26 20:43:43.339,59,false,0.0,4221.923, 4351.539, 4103.461, 4179.231, 4238.974
1722051823.3471,2024-07-26 20:43:43.347,60,false,0.0,4227.18, 4350.897, 4103.461, 4189.744, 4241.026
1722051823.3549,2024-07-26 20:43:43.354,61,false,0.0,4233.333, 4354.487, 4096.41, 4193.974, 4232.308
1722051823.3627,2024-07-26 20:43:43.362,62,false,0.0,4231.667, 4363.461, 4105.513, 4190.897, 4234.872
1722051823.3705,2024-07-26 20:43:43.370,63,false,0.0,4232.564, 4367.564, 4116.41, 4197.051, 4248.461
1722051823.3784,2024-07-26 20:43:43.378,64,false,0.0,4239.487, 4373.59, 4116.026, 4204.103, 4250.769
1722051823.3862,2024-07-26 20:43:43.386,65,false,0.0,4239.487, 4378.846, 4118.461, 4199.231, 4246.795
1722051823.394,2024-07-26 20:43:43.394,66,false,0.0,4230.641, 4363.205, 4113.718, 4189.231, 4245.128
1722051823.4018,2024-07-26 20:43:43.401,67,false,0.0,4225.0, 4347.82, 4100.897, 4184.231, 4240.897
1722051823.4096,2024-07-26 20:43:43.409,68,false,0.0,4218.59, 4356.026, 4099.359, 4181.026, 4233.974
1722051823.4174,2024-07-26 20:43:43.417,69,false,0.0,4203.205, 4355.769, 4095.897, 4174.872, 4222.692
1722051823.4252,2024-07-26 20:43:43.425,70,false,0.0,4196.667, 4337.949, 4086.795, 4176.539, 4217.308
1722051823.433,2024-07-26 20:43:43.433,71,false,0.0,4210.769, 4340.0, 4091.795, 4190.0, 4234.872
1722051823.4409,2024-07-26 20:43:43.440,72,false,0.0,4226.539, 4359.872, 4095.385, 4195.513, 4254.103
1722051823.4487,2024-07-26 20:43:43.448,73,false,0.0,4232.564, 4368.333, 4087.692, 4187.18, 4251.282
1722051823.4565,2024-07-26 20:43:43.456,74,false,0.0,4234.231, 4369.615, 4090.897, 4181.539, 4249.359
1722051823.4643,2024-07-26 20:43:43.464,75,false,0.0,4232.564, 4370.0, 4097.564, 4181.026, 4257.308
1722051823.4721,2024-07-26 20:43:43.472,76,false,0.0,4227.692, 4356.539, 4090.128, 4178.205, 4251.667
1722051823.4799,2024-07-26 20:43:43.479,77,false,0.0,4222.564, 4338.077, 4082.949, 4177.18, 4237.949
1722051823.4877,2024-07-26 20:43:43.487,78,false,0.0,4222.564, 4340.641, 4085.769, 4179.872, 4238.846
1722051823.4955,2024-07-26 20:43:43.495,79,false,0.0,4229.615, 4359.487, 4092.949, 4181.41, 4249.359
1722051823.5034,2024-07-26 20:43:43.503,80,false,0.0,4233.59, 4367.18, 4100.769, 4185.769, 4254.744
1722051823.5112,2024-07-26 20:43:43.511,81,false,0.0,4232.051, 4359.359, 4105.128, 4194.103, 4251.41
1722051823.519,2024-07-26 20:43:43.519,82,false,0.0,4233.077, 4350.769, 4101.41, 4192.436, 4243.846
1722051823.5268,2024-07-26 20:43:43.526,83,false,0.0,4232.692, 4347.692, 4089.872, 4178.205, 4241.667
1722051823.5346,2024-07-26 20:43:43.534,84,false,0.0,4231.282, 4350.0, 4082.949, 4171.667, 4246.923
1722051823.5424,2024-07-26 20:43:43.542,85,false,0.0,4236.539, 4354.359, 4090.513, 4178.718, 4247.692
1722051823.5502,2024-07-26 20:43:43.550,86,false,0.0,4235.769, 4355.897, 4095.0, 4180.897, 4239.231
1722051823.558,2024-07-26 20:43:43.558,87,false,0.0,4228.333, 4358.205, 4086.026, 4176.41, 4235.641
1722051823.5659,2024-07-26 20:43:43.565,88,false,0.0,4234.872, 4361.282, 4085.385, 4180.513, 4243.59
1722051823.5737,2024-07-26 20:43:43.573,89,false,0.0,4243.205, 4359.103, 4092.051, 4188.077, 4245.641
1722051823.5815,2024-07-26 20:43:43.581,90,false,0.0,4237.18, 4359.872, 4089.615, 4188.974, 4237.949
1722051823.5893,2024-07-26 20:43:43.589,91,false,0.0,4233.333, 4364.872, 4090.641, 4189.359, 4240.641
1722051823.5971,2024-07-26 20:43:43.597,92,false,0.0,4228.461, 4356.026, 4096.41, 4188.59, 4247.564
1722051823.6049,2024-07-26 20:43:43.604,93,false,0.0,4212.82, 4342.308, 4091.154, 4182.564, 4235.769
1722051823.6127,2024-07-26 20:43:43.612,94,false,0.0,4210.128, 4345.641, 4088.846, 4180.385, 4222.308
1722051823.6205,2024-07-26 20:43:43.620,95,false,0.0,4218.974, 4351.923, 4094.231, 4177.82, 4225.256
1722051823.6284,2024-07-26 20:43:43.628,96,false,0.0,4214.359, 4353.461, 4087.564, 4168.461, 4226.026
1722051823.6362,2024-07-26 20:43:43.636,97,false,0.0,4212.564, 4364.359, 4085.641, 4168.077, 4223.974
1722051823.644,2024-07-26 20:43:43.644,98,false,0.0,4219.872, 4363.205, 4099.615, 4173.461, 4231.41
1722051823.6518,2024-07-26 20:43:43.651,99,false,0.0,4211.282, 4342.949, 4098.077, 4164.744, 4229.615
1722051823.6596,2024-07-26 20:43:43.659,100,false,0.0,4206.026, 4346.282, 4087.564, 4161.539, 4219.487
1722051823.6674,2024-07-26 20:43:43.667,101,false,0.0,4224.231, 4364.103, 4093.974, 4176.667, 4227.18
1722051823.6752,2024-07-26 20:43:43.675,102,false,0.0,4231.923, 4355.897, 4091.282, 4181.795, 4235.385
1722051823.683,2024-07-26 20:43:43.683,103,false,0.0,4226.282, 4352.308, 4079.359, 4176.282, 4226.795
1722051823.6909,2024-07-26 20:43:43.690,104,false,0.0,4229.359, 4366.41, 4085.641, 4177.18, 4224.872
1722051823.6987,2024-07-26 20:43:43.698,105,false,0.0,4223.846, 4357.18, 4083.205, 4170.769, 4228.846
1722051823.7065,2024-07-26 20:43:43.706,106,false,0.0,4218.461, 4349.487, 4070.513, 4163.205, 4229.872
1722051823.7143,2024-07-26 20:43:43.714,107,false,0.0,4238.333, 4370.256, 4087.692, 4173.077, 4242.18
1722051823.7221,2024-07-26 20:43:43.722,108,false,0.0,4245.641, 4366.154, 4102.308, 4181.41, 4246.795
1722051823.7299,2024-07-26 20:43:43.729,109,false,0.0,4229.487, 4343.461, 4089.872, 4181.923, 4227.949
1722051823.7377,2024-07-26 20:43:43.737,110,false,0.0,4232.308, 4358.846, 4098.077, 4188.718, 4221.539
1722051823.7455,2024-07-26 20:43:43.745,111,false,0.0,4237.564, 4376.282, 4111.41, 4187.308, 4226.026
1722051823.7534,2024-07-26 20:43:43.753,112,false,0.0,4226.154, 4362.949, 4094.103, 4180.0, 4217.949
1722051823.7612,2024-07-26 20:43:43.761,113,false,0.0,4234.103, 4360.0, 4091.026, 4189.359, 4225.513
1722051823.769,2024-07-26 20:43:43.769,114,false,0.0,4244.872, 4363.59, 4104.615, 4195.513, 4242.692
1722051823.7768,2024-07-26 20:43:43.776,115,false,0.0,4232.949, 4354.359, 4096.539, 4190.0, 4233.461
1722051823.7846,2024-07-26 20:43:43.784,116,false,0.0,4240.513, 4366.154, 4101.539, 4201.923, 4231.154
1722051823.7924,2024-07-26 20:43:43.792,117,false,0.0,4260.128, 4387.564, 4123.846, 4215.128, 4250.385
1722051823.8002,2024-07-26 20:43:43.800,118,false,0.0,4250.128, 4378.461, 4116.154, 4207.436, 4251.026
1722051823.808,2024-07-26 20:43:43.808,119,false,0.0,4243.846, 4365.385, 4104.615, 4206.795, 4247.564
1722051823.8159,2024-07-26 20:43:43.815,120,false,0.0,4251.154, 4365.256, 4109.359, 4208.205, 4251.282
1722051823.8237,2024-07-26 20:43:43.823,121,false,0.0,4235.128, 4357.949, 4093.461, 4187.82, 4229.744
1722051823.8315,2024-07-26 20:43:43.831,122,false,0.0,4222.564, 4359.359, 4079.487, 4178.205, 4212.18
1722051823.8393,2024-07-26 20:43:43.839,123,false,0.0,4230.641, 4370.0, 4093.461, 4189.487, 4225.513
1722051823.8471,2024-07-26 20:43:43.847,124,false,0.0,4222.436, 4359.359, 4097.18, 4188.333, 4226.923
1722051823.8549,2024-07-26 20:43:43.854,125,false,0.0,4215.0, 4348.077, 4091.795, 4190.513, 4222.18
1722051823.8627,2024-07-26 20:43:43.862,126,false,0.0,4233.205, 4359.872, 4098.333, 4209.744, 4240.0
1722051823.8705,2024-07-26 20:43:43.870,127,false,0.0,4241.795, 4367.18, 4091.539, 4204.615, 4243.461
1722051823.8784,2024-07-26 20:43:43.878,0,false,0.0,4236.41, 4366.154, 4080.897, 4178.846, 4230.385
1722051823.8862,2024-07-26 20:43:43.886,1,false,0.0,4242.564, 4374.231, 4094.744, 4176.41, 4239.615
1722051823.894,2024-07-26 20:43:43.894,2,false,0.0,4245.769, 4375.128, 4103.461, 4186.795, 4248.846
1722051823.9018,2024-07-26 20:43:43.901,3,false,0.0,4234.231, 4358.974, 4091.026, 4184.359, 4237.308
1722051823.9096,2024-07-26 20:43:43.909,4,false,0.0,4224.872, 4348.077, 4084.615, 4182.18, 4233.461
1722051823.9174,2024-07-26 20:43:43.917,5,false,0.0,4231.41, 4360.897, 4091.923, 4190.897, 4243.461
1722051823.9252,2024-07-26 20:43:43.925,6,false,0.0,4249.615, 4381.667, 4103.077, 4198.974, 4251.923
1722051823.933,2024-07-26 20:43:43.933,7,false,0.0,4252.051, 4374.615, 4105.513, 4194.231, 4252.051
1722051823.9409,2024-07-26 20:43:43.940,8,false,0.0,4232.564, 4350.0, 4094.615, 4181.026, 4239.103
1722051823.9487,2024-07-26 20:43:43.948,9,false,0.0,4226.282, 4349.231, 4089.103, 4175.513, 4228.333
1722051823.9565,2024-07-26 20:43:43.956,10,false,0.0,4233.59, 4354.359, 4087.821, 4177.82, 4229.231
1722051823.9643,2024-07-26 20:43:43.964,11,false,0.0,4225.256, 4337.436, 4071.154, 4172.436, 4217.949
1722051823.9721,2024-07-26 20:43:43.972,12,false,0.0,4215.641, 4331.026, 4065.385, 4165.256, 4201.923
1722051823.9799,2024-07-26 20:43:43.979,13,false,0.0,4226.795, 4347.18, 4091.154, 4175.128, 4216.667
1722051823.9877,2024-07-26 20:43:43.987,14,false,0.0,4243.205, 4355.513, 4110.128, 4194.231, 4241.923
1722051823.9955,2024-07-26 20:43:43.995,15,false,0.0,4245.0, 4352.949, 4101.026, 4198.59, 4236.41
1722051824.0034,2024-07-26 20:43:44.003,16,false,0.0,4232.436, 4350.641, 4087.308, 4190.0, 4216.539
1722051824.0112,2024-07-26 20:43:44.011,17,false,0.0,4223.846, 4349.872, 4079.359, 4186.026, 4211.795
1722051824.019,2024-07-26 20:43:44.019,18,false,0.0,4226.667, 4353.718, 4075.0, 4182.82, 4214.872
1722051824.0268,2024-07-26 20:43:44.026,19,false,0.0,4222.949, 4357.949, 4079.231, 4175.641, 4216.539
1722051824.0346,2024-07-26 20:43:44.034,20,false,0.0,4218.077, 4363.461, 4094.487, 4183.59, 4222.82
1722051824.0424,2024-07-26 20:43:44.042,21,false,0.0,4230.897, 4373.077, 4109.487, 4202.692, 4231.539
1722051824.0502,2024-07-26 20:43:44.050,22,false,0.0,4238.59, 4371.026, 4104.487, 4202.82, 4231.539
1722051824.058,2024-07-26 20:43:44.058,23,false,0.0,4230.769, 4363.077, 4086.282, 4191.667, 4225.256
1722051824.0659,2024-07-26 20:43:44.065,24,false,0.0,4233.333, 4370.769, 4083.846, 4195.0, 4226.41
1722051824.0737,2024-07-26 20:43:44.073,25,false,0.0,4238.461, 4377.82, 4091.795, 4198.846, 4232.18
1722051824.0815,2024-07-26 20:43:44.081,26,false,0.0,4232.692, 4372.051, 4091.923, 4190.641, 4231.41
1722051824.0893,2024-07-26 20:43:44.089,27,false,0.0,4233.333, 4367.692, 4095.769, 4189.872, 4230.897
1722051824.0971,2024-07-26 20:43:44.097,28,false,0.0,4235.897, 4362.18, 4099.103, 4195.385, 4230.769
1722051824.1049,2024-07-26 20:43:44.104,29,false,0.0,4227.436, 4359.103, 4085.769, 4186.539, 4219.231
1722051824.1127,2024-07-26 20:43:44.112,30,false,0.0,4221.154, 4368.205, 4073.205, 4172.949, 4209.359
1722051824.1205,2024-07-26 20:43:44.120,31,false,0.0,4220.513, 4368.461, 4073.333, 4172.436, 4215.641
1722051824.1284,2024-07-26 20:43:44.128,32,false,0.0,4222.564, 4360.385, 4078.59, 4176.41, 4222.308
1722051824.1362,2024-07-26 20:43:44.136,33,false,0.0,4235.385, 4370.256, 4096.539, 4181.026, 4228.59
1722051824.144,2024-07-26 20:43:44.144,34,false,0.0,4249.487, 4379.359, 4113.718, 4192.308, 4243.077
1722051824.1518,2024-07-26 20:43:44.151,35,false,0.0,4251.154, 4369.872, 4104.615, 4193.461, 4244.744
1722051824.1596,2024-07-26 20:43:44.159,36,false,0.0,4243.974, 4366.282, 4089.103, 4176.667, 4229.872
1722051824.1674,2024-07-26 20:43:44.167,37,false,0.0,4231.154, 4368.205, 4085.128, 4165.641, 4223.077
1722051824.1752,2024-07-26 20:43:44.175,38,false,0.0,4215.256, 4355.769, 4075.897, 4161.667, 4215.513
1722051824.183,2024-07-26 20:43:44.183,39,false,0.0,4203.846, 4339.744, 4066.795, 4152.692, 4197.436
1722051824.1909,2024-07-26 20:43:44.190,40,false,0.0,4204.872, 4339.103, 4073.205, 4157.692, 4200.769
1722051824.1987,2024-07-26 20:43:44.198,41,false,0.0,4220.769, 4355.0, 4084.359, 4181.026, 4229.872
1722051824.2065,2024-07-26 20:43:44.206,42,false,0.0,4231.026, 4368.205, 4095.256, 4193.077, 4242.692
1722051824.2143,2024-07-26 20:43:44.214,43,false,0.0,4221.923, 4359.872, 4104.615, 4192.436, 4230.897
1722051824.2221,2024-07-26 20:43:44.222,44,false,0.0,4217.692, 4348.461, 4098.846, 4192.436, 4227.18
1722051824.2299,2024-07-26 20:43:44.229,45,false,0.0,4225.128, 4355.641, 4083.718, 4187.436, 4237.564
1722051824.2377,2024-07-26 20:43:44.237,46,false,0.0,4223.333, 4360.385, 4077.821, 4182.051, 4238.333
1722051824.2455,2024-07-26 20:43:44.245,47,false,0.0,4220.897, 4351.795, 4079.615, 4186.539, 4230.769
1722051824.2534,2024-07-26 20:43:44.253,48,false,0.0,4226.539, 4351.41, 4079.359, 4191.026, 4234.103
1722051824.2612,2024-07-26 20:43:44.261,49,false,0.0,4216.539, 4358.077, 4073.846, 4188.205, 4234.359
1722051824.269,2024-07-26 20:43:44.269,50,false,0.0,4196.282, 4355.513, 4067.692, 4181.667, 4219.359
1722051824.2768,2024-07-26 20:43:44.276,51,false,0.0,4198.333, 4354.231, 4072.692, 4181.923, 4220.897
1722051824.2846,2024-07-26 20:43:44.284,52,false,0.0,4219.872, 4364.103, 4087.179, 4196.282, 4244.231
1722051824.2924,2024-07-26 20:43:44.292,53,false,0.0,4235.128, 4366.923, 4095.256, 4202.564, 4251.667
1722051824.3002,2024-07-26 20:43:44.300,54,false,0.0,4235.385, 4355.513, 4092.692, 4183.974, 4244.487
1722051824.308,2024-07-26 20:43:44.308,55,false,0.0,4225.128, 4355.769, 4088.974, 4170.0, 4243.333
1722051824.3159,2024-07-26 20:43:44.315,56,false,0.0,4216.282, 4371.41, 4089.231, 4177.949, 4238.974
1722051824.3237,2024-07-26 20:43:44.323,57,false,0.0,4215.0, 4368.461, 4086.923, 4185.641, 4236.923
1722051824.3315,2024-07-26 20:43:44.331,58,false,0.0,4215.0, 4350.641, 4079.359, 4186.795, 4243.974
1722051824.3393,2024-07-26 20:43:44.339,59,false,0.0,4216.026, 4352.051, 4082.308, 4191.154, 4240.256
1722051824.3471,2024-07-26 20:43:44.347,60,false,0.0,4219.231, 4360.256, 4093.461, 4190.513, 4229.487
1722051824.3549,2024-07-26 20:43:44.354,61,false,0.0,4213.846, 4355.641, 4089.872, 4180.256, 4227.051
1722051824.3627,2024-07-26 20:43:44.362,62,false,0.0,4206.154, 4357.436, 4085.769, 4173.974, 4227.436
1722051824.3705,2024-07-26 20:43:44.370,63,false,0.0,4212.308, 4362.436, 4096.795, 4176.41, 4231.154
1722051824.3784,2024-07-26 20:43:44.378,64,false,0.0,4215.128, 4349.231, 4093.333, 4173.846, 4228.333
1722051824.3862,2024-07-26 20:43:44.386,65,false,0.0,4204.487, 4337.949, 4078.974, 4165.513, 4211.539
1722051824.394,2024-07-26 20:43:44.394,66,false,0.0,4210.256, 4348.59, 4085.641, 4168.846, 4214.615
1722051824.4018,2024-07-26 20:43:44.401,67,false,0.0,4225.513, 4357.564, 4087.308, 4172.308, 4234.872
1722051824.4096,2024-07-26 20:43:44.409,68,false,0.0,4211.795, 4348.077, 4069.487, 4157.051, 4229.487
1722051824.4174,2024-07-26 20:43:44.417,69,false,0.0,4190.385, 4335.385, 4067.179, 4148.461, 4215.513
1722051824.4252,2024-07-26 20:43:44.425,70,false,0.0,4190.769, 4331.795, 4071.795, 4154.872, 4215.0
1722051824.433,2024-07-26 20:43:44.433,71,false,0.0,4190.513, 4330.769, 4064.103, 4149.744, 4211.41
1722051824.4409,2024-07-26 20:43:44.440,72,false,0.0,4187.949, 4329.872, 4066.282, 4148.461, 4217.436
1722051824.4487,2024-07-26 20:43:44.448,73,false,0.0,4200.769, 4340.641, 4072.051, 4164.103, 4231.539
1722051824.4565,2024-07-26 20:43:44.456,74,false,0.0,4210.128, 4357.564, 4069.615, 4166.154, 4226.154
1722051824.4643,2024-07-26 20:43:44.464,75,false,0.0,4206.795, 4355.256, 4075.769, 4163.974, 4223.333
1722051824.4721,2024-07-26 20:43:44.472,76,false,0.0,4205.256, 4338.461, 4075.0, 4176.795, 4230.0
1722051824.4799,2024-07-26 20:43:44.479,77,false,0.0,4203.333, 4336.026, 4062.821, 4177.564, 4218.59
1722051824.4877,2024-07-26 20:43:44.487,78,false,0.0,4205.128, 4347.051, 4071.41, 4172.18, 4215.385
1722051824.4955,2024-07-26 20:43:44.495,79,false,0.0,4215.769, 4351.795, 4079.487, 4183.461, 4231.154
1722051824.5034,2024-07-26 20:43:44.503,80,false,0.0,4217.564, 4347.18, 4064.615, 4182.949, 4228.718
1722051824.5112,2024-07-26 20:43:44.511,81,false,0.0,4210.641, 4340.769, 4067.051, 4167.051, 4220.0
1722051824.519,2024-07-26 20:43:44.519,82,false,0.0,4208.59, 4340.256, 4080.897, 4163.333, 4221.41
1722051824.5268,2024-07-26 20:43:44.526,83,false,0.0,4202.051, 4349.487, 4073.59, 4160.385, 4213.077
1722051824.5346,2024-07-26 20:43:44.534,84,false,0.0,4194.487, 4360.513, 4075.641, 4158.718, 4211.026
1722051824.5424,2024-07-26 20:43:44.542,85,false,0.0,4202.436, 4359.872, 4090.128, 4176.539, 4224.487
1722051824.5502,2024-07-26 20:43:44.550,86,false,0.0,4214.615, 4352.051, 4082.564, 4187.82, 4226.795
1722051824.558,2024-07-26 20:43:44.558,87,false,0.0,4219.744, 4354.359, 4075.385, 4180.641, 4228.333
1722051824.5659,2024-07-26 20:43:44.565,88,false,0.0,4223.333, 4361.539, 4086.41, 4183.333, 4237.308
1722051824.5737,2024-07-26 20:43:44.573,89,false,0.0,4229.359, 4359.487, 4091.154, 4193.846, 4234.103
1722051824.5815,2024-07-26 20:43:44.581,90,false,0.0,4242.436, 4365.128, 4097.308, 4196.282, 4238.077
1722051824.5893,2024-07-26 20:43:44.589,91,false,0.0,4248.974, 4378.205, 4107.308, 4194.487, 4252.949
1722051824.5971,2024-07-26 20:43:44.597,92,false,0.0,4225.385, 4362.18, 4095.513, 4184.744, 4238.461
1722051824.6049,2024-07-26 20:43:44.604,93,false,0.0,4199.744, 4337.436, 4082.692, 4173.205, 4213.205
1722051824.6127,2024-07-26 20:43:44.612,94,false,0.0,4206.667, 4352.051, 4095.256, 4177.436, 4217.82
1722051824.6205,2024-07-26 20:43:44.620,95,false,0.0,4223.846, 4375.513, 4107.18, 4190.256, 4231.795
1722051824.6284,2024-07-26 20:43:44.628,96,false,0.0,4237.18, 4375.513, 4113.333, 4200.0, 4244.359
1722051824.6362,2024-07-26 20:43:44.636,97,false,0.0,4253.333, 4376.539, 4126.923, 4203.718, 4259.615
1722051824.644,2024-07-26 20:43:44.644,98,false,0.0,4250.128, 4371.667, 4123.974, 4194.872, 4251.923
1722051824.6518,2024-07-26 20:43:44.651,99,false,0.0,4235.769, 4353.974, 4104.872, 4188.974, 4235.385
1722051824.6596,2024-07-26 20:43:44.659,100,false,0.0,4242.18, 4359.744, 4102.051, 4197.308, 4242.051
1722051824.6674,2024-07-26 20:43:44.667,101,false,0.0,4241.539, 4372.18, 4104.487, 4193.59, 4241.667
1722051824.6752,2024-07-26 20:43:44.675,102,false,0.0,4224.103, 4359.744, 4098.461, 4184.487, 4229.359
1722051824.683,2024-07-26 20:43:44.683,103,false,0.0,4229.487, 4357.308, 4103.846, 4198.461, 4237.82
1722051824.6909,2024-07-26 20:43:44.690,104,false,0.0,4231.154, 4363.846, 4104.872, 4200.641, 4233.077
1722051824.6987,2024-07-26 20:43:44.698,105,false,0.0,4206.923, 4349.615, 4089.231, 4175.513, 4203.461
1722051824.7065,2024-07-26 20:43:44.706,106,false,0.0,4217.564, 4353.59, 4098.205, 4177.564, 4212.436
1722051824.7143,2024-07-26 20:43:44.714,107,false,0.0,4248.59, 4377.051, 4123.333, 4196.923, 4241.667
1722051824.7221,2024-07-26 20:43:44.722,108,false,0.0,4229.744, 4364.872, 4113.077, 4183.846, 4229.872
1722051824.7299,2024-07-26 20:43:44.729,109,false,0.0,4207.051, 4350.256, 4093.718, 4174.231, 4217.051
1722051824.7377,2024-07-26 20:43:44.737,110,false,0.0,4231.539, 4373.974, 4105.513, 4197.308, 4237.051
1722051824.7455,2024-07-26 20:43:44.745,111,false,0.0,4248.974, 4385.897, 4117.692, 4213.333, 4252.308
1722051824.7534,2024-07-26 20:43:44.753,112,false,0.0,4243.59, 4376.154, 4117.82, 4215.897, 4255.0
1722051824.7612,2024-07-26 20:43:44.761,113,false,0.0,4244.615, 4381.41, 4126.154, 4216.923, 4254.872
1722051824.769,2024-07-26 20:43:44.769,114,false,0.0,4233.718, 4379.103, 4127.564, 4199.872, 4246.539
1722051824.7768,2024-07-26 20:43:44.776,115,false,0.0,4218.59, 4363.974, 4116.154, 4186.282, 4249.872
1722051824.7846,2024-07-26 20:43:44.784,116,false,0.0,4235.385, 4373.077, 4116.41, 4201.41, 4266.923
1722051824.7924,2024-07-26 20:43:44.792,117,false,0.0,4250.0, 4382.18, 4118.077, 4207.949, 4265.897
1722051824.8002,2024-07-26 20:43:44.800,118,false,0.0,4236.41, 4366.923, 4107.436, 4194.615, 4256.026
1722051824.808,2024-07-26 20:43:44.808,119,false,0.0,4235.641, 4366.41, 4109.487, 4195.256, 4264.487
1722051824.8159,2024-07-26 20:43:44.815,120,false,0.0,4246.667, 4377.18, 4122.308, 4200.513, 4276.41
1722051824.8237,2024-07-26 20:43:44.823,121,false,0.0,4236.795, 4363.974, 4117.949, 4193.718, 4273.205
1722051824.8315,2024-07-26 20:43:44.831,122,false,0.0,4230.128, 4358.461, 4114.231, 4196.282, 4268.461
1722051824.8393,2024-07-26 20:43:44.839,123,false,0.0,4240.641, 4377.692, 4127.82, 4203.077, 4275.0
1722051824.8471,2024-07-26 20:43:44.847,124,false,0.0,4242.949, 4379.872, 4128.974, 4195.769, 4283.077
1722051824.8549,2024-07-26 20:43:44.854,125,false,0.0,4248.846, 4371.923, 4117.18, 4193.718, 4285.769
1722051824.8627,2024-07-26 20:43:44.862,126,false,0.0,4266.923, 4381.026, 4119.744, 4200.897, 4290.897
1722051824.8705,2024-07-26 20:43:44.870,127,false,0.0,4263.59, 4378.077, 4118.077, 4195.256, 4291.026
1722051824.8784,2024-07-26 20:43:44.878,0,false,0.0,4249.103, 4362.82, 4103.205, 4191.539, 4280.128
1722051824.8862,2024-07-26 20:43:44.886,1,false,0.0,4259.231, 4375.128, 4111.539, 4205.897, 4281.41
1722051824.894,2024-07-26 20:43:44.894,2,false,0.0,4270.769, 4391.923, 4130.641, 4214.231, 4294.103
1722051824.9018,2024-07-26 20:43:44.901,3,false,0.0,4262.564, 4378.718, 4121.282, 4207.18, 4287.692
1722051824.9096,2024-07-26 20:43:44.909,4,false,0.0,4257.949, 4367.436, 4110.0, 4197.692, 4275.769
1722051824.9174,2024-07-26 20:43:44.917,5,false,0.0,4256.539, 4374.744, 4117.949, 4185.641, 4277.436
1722051824.9252,2024-07-26 20:43:44.925,6,false,0.0,4242.82, 4371.795, 4112.949, 4172.949, 4263.846
1722051824.933,2024-07-26 20:43:44.933,7,false,0.0,4228.974, 4361.41, 4100.769, 4166.795, 4239.615
1722051824.9409,2024-07-26 20:43:44.940,8,false,0.0,4227.82, 4369.231, 4112.564, 4169.487, 4250.513
1722051824.9487,2024-07-26 20:43:44.948,9,false,0.0,4237.564, 4383.461, 4125.513, 4184.872, 4279.359
1722051824.9565,2024-07-26 20:43:44.956,10,false,0.0,4246.923, 4381.282, 4116.539, 4197.692, 4276.282
1722051824.9643,2024-07-26 20:43:44.964,11,false,0.0,4242.949, 4373.205, 4106.795, 4187.051, 4256.026
1722051824.9721,2024-07-26 20:43:44.972,12,false,0.0,4233.846, 4370.385, 4102.051, 4176.667, 4255.897
1722051824.9799,2024-07-26 20:43:44.979,13,false,0.0,4235.513, 4365.513, 4092.308, 4184.872, 4265.641
1722051824.9877,2024-07-26 20:43:44.987,14,false,0.0,4243.077, 4367.051, 4091.539, 4189.231, 4265.769
1722051824.9955,2024-07-26 20:43:44.995,15,false,0.0,4248.846, 4380.641, 4105.256, 4189.487, 4266.026
1722051825.0034,2024-07-26 20:43:45.003,16,false,0.0,4246.539, 4382.308, 4111.795, 4194.103, 4268.077
1722051825.0112,2024-07-26 20:43:45.011,17,false,0.0,4233.59, 4373.205, 4106.539, 4187.051, 4262.949
1722051825.019,2024-07-26 20:43:45.019,18,false,0.0,4232.051, 4377.051, 4108.718, 4183.461, 4266.923
1722051825.0268,2024-07-26 20:43:45.026,19,false,0.0,4247.564, 4381.026, 4116.923, 4201.154, 4282.436
1722051825.0346,2024-07-26 20:43:45.034,20,false,0.0,4248.846, 4374.615, 4114.231, 4206.154, 4280.513
1722051825.0424,2024-07-26 20:43:45.042,21,false,0.0,4240.897, 4376.795, 4107.18, 4195.0, 4268.974
1722051825.0502,2024-07-26 20:43:45.050,22,false,0.0,4247.564, 4377.436, 4106.41, 4198.205, 4274.744
1722051825.058,2024-07-26 20:43:45.058,23,false,0.0,4247.949, 4366.795, 4100.769, 4200.897, 4276.667
1722051825.0659,2024-07-26 20:43:45.065,24,false,0.0,4237.949, 4369.615, 4093.718, 4192.18, 4263.077
1722051825.0737,2024-07-26 20:43:45.073,25,false,0.0,4244.744, 4379.615, 4100.897, 4191.539, 4257.692
1722051825.0815,2024-07-26 20:43:45.081,26,false,0.0,4253.59, 4374.615, 4108.59, 4187.692, 4257.308
1722051825.0893,2024-07-26 20:43:45.089,27,false,0.0,4249.615, 4374.103, 4109.487, 4178.461, 4258.333
1722051825.0971,2024-07-26 20:43:45.097,28,false,0.0,4251.795, 4380.769, 4117.308, 4189.359, 4270.128
1722051825.1049,2024-07-26 20:43:45.104,29,false,0.0,4249.359, 4371.795, 4116.282, 4198.077, 4269.103
1722051825.1127,2024-07-26 20:43:45.112,30,false,0.0,4232.436, 4362.949, 4095.897, 4181.539, 4249.231
1722051825.1205,2024-07-26 20:43:45.120,31,false,0.0,4231.154, 4367.051, 4091.539, 4174.359, 4245.641
1722051825.1284,2024-07-26 20:43:45.128,32,false,0.0,4243.077, 4364.359, 4109.615, 4187.051, 4252.308
1722051825.1362,2024-07-26 20:43:45.136,33,false,0.0,4239.487, 4362.308, 4115.897, 4191.539, 4247.82
1722051825.144,2024-07-26 20:43:45.144,34,false,0.0,4228.59, 4372.949, 4107.308, 4188.59, 4244.615
1722051825.1518,2024-07-26 20:43:45.151,35,false,0.0,4226.795, 4373.974, 4104.103, 4191.539, 4244.359
1722051825.1596,2024-07-26 20:43:45.159,36,false,0.0,4229.615, 4366.41, 4108.59, 4197.18, 4242.436
1722051825.1674,2024-07-26 20:43:45.167,37,false,0.0,4228.205, 4369.872, 4112.564, 4194.872, 4243.077
1722051825.1752,2024-07-26 20:43:45.175,38,false,0.0,4219.744, 4374.872, 4112.564, 4179.103, 4233.205
1722051825.183,2024-07-26 20:43:45.183,39,false,0.0,4222.308, 4377.564, 4120.128, 4173.333, 4225.513
1722051825.1909,2024-07-26 20:43:45.190,40,false,0.0,4238.333, 4383.205, 4128.974, 4189.615, 4241.282
1722051825.1987,2024-07-26 20:43:45.198,41,false,0.0,4233.461, 4378.461, 4112.949, 4189.487, 4244.615
1722051825.2065,2024-07-26 20:43:45.206,42,false,0.0,4217.564, 4370.128, 4097.051, 4171.667, 4230.0
1722051825.2143,2024-07-26 20:43:45.214,43,false,0.0,4225.641, 4374.744, 4112.949, 4178.846, 4236.795
1722051825.2221,2024-07-26 20:43:45.222,44,false,0.0,4227.308, 4372.18, 4117.051, 4189.872, 4236.923
1722051825.2299,2024-07-26 20:43:45.229,45,false,0.0,4210.641, 4363.461, 4100.385, 4178.205, 4214.615
1722051825.2377,2024-07-26 20:43:45.237,46,false,0.0,4223.077, 4375.128, 4115.385, 4182.564, 4226.923
1722051825.2455,2024-07-26 20:43:45.245,47,false,0.0,4246.154, 4383.718, 4136.026, 4196.539, 4255.256
1722051825.2534,2024-07-26 20:43:45.253,48,false,0.0,4234.744, 4368.974, 4120.513, 4184.359, 4242.949
1722051825.2612,2024-07-26 20:43:45.261,49,false,0.0,4224.872, 4364.103, 4110.128, 4177.051, 4230.769
1722051825.269,2024-07-26 20:43:45.269,50,false,0.0,4234.744, 4374.872, 4114.744, 4184.103, 4243.461
1722051825.2768,2024-07-26 20:43:45.276,51,false,0.0,4230.385, 4376.41, 4104.872, 4173.846, 4240.0
1722051825.2846,2024-07-26 20:43:45.284,52,false,0.0,4225.385, 4375.641, 4106.667, 4171.026, 4235.513
1722051825.2924,2024-07-26 20:43:45.292,53,false,0.0,4237.18, 4377.949, 4127.18, 4190.513, 4253.59
1722051825.3002,2024-07-26 20:43:45.300,54,false,0.0,4239.744, 4372.692, 4131.026, 4192.436, 4258.461
1722051825.308,2024-07-26 20:43:45.308,55,false,0.0,4239.103, 4370.641, 4126.539, 4182.308, 4247.18
1722051825.3159,2024-07-26 20:43:45.315,56,false,0.0,4247.692, 4379.231, 4127.949, 4183.974, 4249.872
1722051825.3237,2024-07-26 20:43:45.323,57,false,0.0,4240.385, 4384.615, 4120.641, 4179.103, 4252.692
1722051825.3315,2024-07-26 20:43:45.331,58,false,0.0,4229.615, 4385.641, 4115.0, 4173.205, 4244.744
1722051825.3393,2024-07-26 20:43:45.339,59,false,0.0,4243.718, 4385.897, 4124.103, 4186.41, 4246.41
1722051825.3471,2024-07-26 20:43:45.347,60,false,0.0,4251.667, 4376.923, 4128.205, 4196.923, 4251.026
1722051825.3549,2024-07-26 20:43:45.354,61,false,0.0,4237.051, 4368.718, 4122.051, 4191.923, 4239.231
1722051825.3627,2024-07-26 20:43:45.362,62,false,0.0,4233.846, 4380.0, 4124.487, 4187.051, 4229.231
1722051825.3705,2024-07-26 20:43:45.370,63,false,0.0,4242.949, 4391.923, 4135.897, 4187.308, 4238.846
1722051825.3784,2024-07-26 20:43:45.378,64,false,0.0,4244.231, 4381.539, 4139.359, 4193.974, 4247.051
1722051825.3862,2024-07-26 20:43:45.386,65,false,0.0,4246.026, 4370.0, 4134.615, 4203.077, 4241.154
1722051825.394,2024-07-26 20:43:45.394,66,false,0.0,4246.41, 4372.436, 4129.359, 4199.103, 4235.641
1722051825.4018,2024-07-26 20:43:45.401,67,false,0.0,4237.051, 4371.923, 4118.59, 4189.615, 4231.41
1722051825.4096,2024-07-26 20:43:45.409,68,false,0.0,4236.154, 4372.308, 4112.692, 4191.282, 4226.667
1722051825.4174,2024-07-26 20:43:45.417,69,false,0.0,4245.385, 4381.154, 4126.026, 4194.615, 4234.359
1722051825.4252,2024-07-26 20:43:45.425,70,false,0.0,4244.359, 4381.41, 4137.436, 4193.59, 4242.949
1722051825.433,2024-07-26 20:43:45.433,71,false,0.0,4242.18, 4378.974, 4135.769, 4200.769, 4237.436
1722051825.4409,2024-07-26 20:43:45.440,72,false,0.0,4247.82, 4385.897, 4139.103, 4207.949, 4235.256
1722051825.4487,2024-07-26 20:43:45.448,73,false,0.0,4239.615, 4382.949, 4132.564, 4195.0, 4231.154
1722051825.4565,2024-07-26 20:43:45.456,74,false,0.0,4220.256, 4370.769, 4106.667, 4176.154, 4211.41
1722051825.4643,2024-07-26 20:43:45.464,75,false,0.0,4220.385, 4366.026, 4095.0, 4174.872, 4210.385
1722051825.4721,2024-07-26 20:43:45.472,76,false,0.0,4238.461, 4363.846, 4102.692, 4182.692, 4234.872
1722051825.4799,2024-07-26 20:43:45.479,77,false,0.0,4250.641, 4372.18, 4109.103, 4185.385, 4243.974
1722051825.4877,2024-07-26 20:43:45.487,78,false,0.0,4247.949, 4385.897, 4111.923, 4184.487, 4238.718
1722051825.4955,2024-07-26 20:43:45.495,79,false,0.0,4237.18, 4376.795, 4102.308, 4182.18, 4238.718
1722051825.5034,2024-07-26 20:43:45.503,80,false,0.0,4237.949, 4370.256, 4092.051, 4183.205, 4237.308
1722051825.5112,2024-07-26 20:43:45.511,81,false,0.0,4250.128, 4387.18, 4104.231, 4187.82, 4235.513
1722051825.519,2024-07-26 20:43:45.519,82,false,0.0,4247.051, 4384.231, 4111.154, 4181.282, 4233.077
1722051825.5268,2024-07-26 20:43:45.526,83,false,0.0,4237.18, 4368.846, 4100.769, 4169.872, 4226.539
1722051825.5346,2024-07-26 20:43:45.534,84,false,0.0,4241.795, 4380.513, 4103.718, 4174.231, 4228.461
1722051825.5424,2024-07-26 20:43:45.542,85,false,0.0,4239.103, 4384.744, 4105.385, 4183.333, 4230.256
1722051825.5502,2024-07-26 20:43:45.550,86,false,0.0,4227.308, 4366.026, 4093.205, 4183.718, 4220.641
1722051825.558,2024-07-26 20:43:45.558,87,false,0.0,4231.539, 4360.0, 4093.974, 4181.795, 4217.436
1722051825.5659,2024-07-26 20:43:45.565,88,false,0.0,4231.026, 4359.359, 4092.821, 4173.59, 4213.974
1722051825.5737,2024-07-26 20:43:45.573,89,false,0.0,4216.539, 4355.128, 4083.846, 4168.205, 4201.923
1722051825.5815,2024-07-26 20:43:45.581,90,false,0.0,4222.949, 4363.461, 4098.077, 4181.795, 4209.103
1722051825.5893,2024-07-26 20:43:45.589,91,false,0.0,4238.718, 4367.564, 4107.18, 4188.974, 4223.718
1722051825.5971,2024-07-26 20:43:45.597,92,false,0.0,4238.205, 4363.333, 4091.026, 4179.744, 4218.077
1722051825.6049,2024-07-26 20:43:45.604,93,false,0.0,4243.974, 4371.923, 4097.18, 4185.513, 4218.59
1722051825.6127,2024-07-26 20:43:45.612,94,false,0.0,4254.231, 4375.513, 4115.128, 4196.026, 4228.974
1722051825.6205,2024-07-26 20:43:45.620,95,false,0.0,4243.974, 4361.667, 4105.897, 4184.231, 4222.436
1722051825.6284,2024-07-26 20:43:45.628,96,false,0.0,4231.667, 4357.308, 4102.18, 4176.41, 4213.333
1722051825.6362,2024-07-26 20:43:45.636,97,false,0.0,4232.051, 4367.436, 4115.769, 4185.385, 4213.077
1722051825.644,2024-07-26 20:43:45.644,98,false,0.0,4232.82, 4376.667, 4114.872, 4184.872, 4206.923
1722051825.6518,2024-07-26 20:43:45.651,99,false,0.0,4236.667, 4379.744, 4108.718, 4177.308, 4205.513
1722051825.6596,2024-07-26 20:43:45.659,100,false,0.0,4245.128, 4377.564, 4110.641, 4181.41, 4215.769
1722051825.6674,2024-07-26 20:43:45.667,101,false,0.0,4242.82, 4374.872, 4107.18, 4186.539, 4217.308
1722051825.6752,2024-07-26 20:43:45.675,102,false,0.0,4228.461, 4370.385, 4099.359, 4178.205, 4206.282
1722051825.683,2024-07-26 20:43:45.683,103,false,0.0,4219.487, 4366.667, 4095.769, 4166.41, 4195.769
1722051825.6909,2024-07-26 20:43:45.690,104,false,0.0,4223.077, 4380.385, 4099.615, 4168.205, 4196.282
1722051825.6987,2024-07-26 20:43:45.698,105,false,0.0,4225.897, 4392.949, 4108.077, 4181.026, 4205.897
1722051825.7065,2024-07-26 20:43:45.706,106,false,0.0,4223.718, 4377.18, 4109.872, 4188.461, 4210.641
1722051825.7143,2024-07-26 20:43:45.714,107,false,0.0,4230.897, 4366.154, 4107.308, 4187.308, 4208.333
1722051825.7221,2024-07-26 20:43:45.722,108,false,0.0,4236.923, 4380.0, 4107.18, 4181.667, 4204.231
1722051825.7299,2024-07-26 20:43:45.729,109,false,0.0,4226.923, 4381.795, 4102.051, 4172.308, 4196.923
1722051825.7377,2024-07-26 20:43:45.737,110,false,0.0,4225.385, 4370.0, 4101.41, 4168.974, 4199.744
1722051825.7455,2024-07-26 20:43:45.745,111,false,0.0,4239.103, 4370.128, 4112.436, 4173.59, 4216.41
1722051825.7534,2024-07-26 20:43:45.753,112,false,0.0,4238.59, 4371.923, 4114.231, 4173.59, 4214.615
1722051825.7612,2024-07-26 20:43:45.761,113,false,0.0,4225.128, 4367.564, 4102.18, 4168.333, 4189.359
1722051825.769,2024-07-26 20:43:45.769,114,false,0.0,4215.385, 4362.949, 4089.872, 4165.641, 4176.539
1722051825.7768,2024-07-26 20:43:45.776,115,false,0.0,4210.641, 4357.051, 4081.026, 4166.41, 4184.615
1722051825.7846,2024-07-26 20:43:45.784,116,false,0.0,4218.846, 4356.282, 4084.231, 4171.154, 4194.744
1722051825.7924,2024-07-26 20:43:45.792,117,false,0.0,4232.692, 4359.744, 4096.795, 4176.539, 4198.461
1722051825.8002,2024-07-26 20:43:45.800,118,false,0.0,4233.333, 4361.41, 4102.18, 4181.026, 4200.513
1722051825.808,2024-07-26 20:43:45.808,119,false,0.0,4234.103, 4372.308, 4106.539, 4185.769, 4208.846
1722051825.8159,2024-07-26 20:43:45.815,120,false,0.0,4239.615, 4378.846, 4112.949, 4181.667, 4215.0
1722051825.8237,2024-07-26 20:43:45.823,121,false,0.0,4231.026, 4358.974, 4105.769, 4170.256, 4206.795
1722051825.8315,2024-07-26 20:43:45.831,122,false,0.0,4223.846, 4347.949, 4094.744, 4171.154, 4200.897
1722051825.8393,2024-07-26 20:43:45.839,123,false,0.0,4233.974, 4369.103, 4098.846, 4177.436, 4209.872
1722051825.8471,2024-07-26 20:43:45.847,124,false,0.0,4237.18, 4382.82, 4111.154, 4171.154, 4215.897
1722051825.8549,2024-07-26 20:43:45.854,125,false,0.0,4227.82, 4375.128, 4118.59, 4168.333, 4213.718
1722051825.8627,2024-07-26 20:43:45.862,126,false,0.0,4224.872, 4368.333, 4114.359, 4177.949, 4213.974
1722051825.8705,2024-07-26 20:43:45.870,127,false,0.0,4224.615, 4360.128, 4102.18, 4179.744, 4211.154
1722051825.8784,2024-07-26 20:43:45.878,0,false,0.0,4220.385, 4353.974, 4095.641, 4172.308, 4204.744
1722051825.8862,2024-07-26 20:43:45.886,1,false,0.0,4219.359, 4363.846, 4093.718, 4170.769, 4207.051
1722051825.894,2024-07-26 20:43:45.894,2,false,0.0,4221.026, 4368.59, 4091.41, 4173.974, 4213.718
1722051825.9018,2024-07-26 20:43:45.901,3,false,0.0,4222.82, 4359.103, 4101.667, 4176.539, 4216.923
1722051825.9096,2024-07-26 20:43:45.909,4,false,0.0,4227.051, 4363.333, 4123.205, 4180.256, 4221.026
1722051825.9174,2024-07-26 20:43:45.917,5,false,0.0,4227.436, 4373.333, 4131.154, 4180.385, 4220.513
1722051825.9252,2024-07-26 20:43:45.925,6,false,0.0,4220.769, 4364.359, 4119.872, 4172.949, 4211.282
1722051825.933,2024-07-26 20:43:45.933,7,false,0.0,4224.359, 4362.436, 4110.641, 4167.308, 4212.051
1722051825.9409,2024-07-26 20:43:45.940,8,false,0.0,4241.154, 4378.846, 4114.744, 4168.59, 4226.282
1722051825.9487,2024-07-26 20:43:45.948,9,false,0.0,4244.359, 4376.923, 4120.128, 4170.769, 4231.539
1722051825.9565,2024-07-26 20:43:45.956,10,false,0.0,4234.872, 4363.077, 4121.923, 4178.205, 4228.846
1722051825.9643,2024-07-26 20:43:45.964,11,false,0.0,4238.59, 4368.718, 4128.846, 4193.205, 4231.539
1722051825.9721,2024-07-26 20:43:45.972,12,false,0.0,4238.846, 4375.128, 4132.308, 4192.692, 4223.59
1722051825.9799,2024-07-26 20:43:45.979,13,false,0.0,4219.359, 4368.077, 4124.615, 4177.051, 4207.18
1722051825.9877,2024-07-26 20:43:45.987,14,false,0.0,4216.795, 4364.231, 4121.923, 4177.18, 4212.949
1722051825.9955,2024-07-26 20:43:45.995,15,false,0.0,4235.128, 4360.513, 4123.461, 4184.359, 4224.744
1722051826.0034,2024-07-26 20:43:46.003,16,false,0.0,4234.615, 4359.615, 4116.026, 4175.256, 4212.692
1722051826.0112,2024-07-26 20:43:46.011,17,false,0.0,4226.923, 4372.051, 4116.539, 4174.231, 4207.564
1722051826.019,2024-07-26 20:43:46.019,18,false,0.0,4236.795, 4374.744, 4131.795, 4192.051, 4228.205
1722051826.0268,2024-07-26 20:43:46.026,19,false,0.0,4242.564, 4362.18, 4138.333, 4197.436, 4235.769
1722051826.0346,2024-07-26 20:43:46.034,20,false,0.0,4238.846, 4362.949, 4137.564, 4188.59, 4220.897
1722051826.0424,2024-07-26 20:43:46.042,21,false,0.0,4237.564, 4369.615, 4138.718, 4185.513, 4212.051
1722051826.0502,2024-07-26 20:43:46.050,22,false,0.0,4227.82, 4362.308, 4130.769, 4185.897, 4208.461
1722051826.058,2024-07-26 20:43:46.058,23,false,0.0,4221.282, 4356.026, 4122.564, 4189.487, 4202.18
1722051826.0659,2024-07-26 20:43:46.065,24,false,0.0,4233.077, 4353.205, 4129.231, 4194.872, 4202.82
1722051826.0737,2024-07-26 20:43:46.073,25,false,0.0,4229.615, 4340.256, 4128.974, 4184.359, 4202.18
1722051826.0815,2024-07-26 20:43:46.081,26,false,0.0,4205.769, 4330.385, 4112.949, 4167.051, 4190.513
1722051826.0893,2024-07-26 20:43:46.089,27,false,0.0,4209.231, 4340.769, 4109.872, 4170.513, 4186.282
1722051826.0971,2024-07-26 20:43:46.097,28,false,0.0,4234.744, 4360.897, 4124.231, 4184.744, 4197.564
1722051826.1049,2024-07-26 20:43:46.104,29,false,0.0,4233.846, 4366.282, 4127.18, 4185.385, 4202.308
1722051826.1127,2024-07-26 20:43:46.112,30,false,0.0,4213.846, 4351.795, 4114.615, 4178.333, 4192.692
1722051826.1205,2024-07-26 20:43:46.120,31,false,0.0,4210.513, 4341.923, 4107.949, 4175.256, 4187.82
1722051826.1284,2024-07-26 20:43:46.128,32,false,0.0,4217.692, 4347.18, 4108.718, 4171.41, 4191.923
1722051826.1362,2024-07-26 20:43:46.136,33,false,0.0,4216.282, 4348.205, 4103.974, 4166.154, 4192.051
1722051826.144,2024-07-26 20:43:46.144,34,false,0.0,4215.0, 4343.846, 4101.282, 4168.718, 4191.667
1722051826.1518,2024-07-26 20:43:46.151,35,false,0.0,4222.949, 4349.615, 4108.59, 4178.59, 4197.436
1722051826.1596,2024-07-26 20:43:46.159,36,false,0.0,4227.564, 4359.615, 4113.077, 4181.154, 4199.744
1722051826.1674,2024-07-26 20:43:46.167,37,false,0.0,4223.718, 4365.385, 4110.513, 4174.487, 4196.41
1722051826.1752,2024-07-26 20:43:46.175,38,false,0.0,4224.744, 4367.564, 4113.333, 4173.846, 4198.205
1722051826.183,2024-07-26 20:43:46.183,39,false,0.0,4231.154, 4359.487, 4117.949, 4178.974, 4199.744
1722051826.1909,2024-07-26 20:43:46.190,40,false,0.0,4226.539, 4345.256, 4113.077, 4172.692, 4189.744
1722051826.1987,2024-07-26 20:43:46.198,41,false,0.0,4212.692, 4341.154, 4106.026, 4160.513, 4179.231
1722051826.2065,2024-07-26 20:43:46.206,42,false,0.0,4207.308, 4346.026, 4106.923, 4162.18, 4183.461
1722051826.2143,2024-07-26 20:43:46.214,43,false,0.0,4213.974, 4349.359, 4112.308, 4174.872, 4194.103
1722051826.2221,2024-07-26 20:43:46.222,44,false,0.0,4222.949, 4352.436, 4116.795, 4185.897, 4197.692
1722051826.2299,2024-07-26 20:43:46.229,45,false,0.0,4227.436, 4357.82, 4117.949, 4189.872, 4199.103
1722051826.2377,2024-07-26 20:43:46.237,46,false,0.0,4226.539, 4359.872, 4114.615, 4182.436, 4202.949
1722051826.2455,2024-07-26 20:43:46.245,47,false,0.0,4224.872, 4359.231, 4110.256, 4172.82, 4201.667
1722051826.2534,2024-07-26 20:43:46.253,48,false,0.0,4227.564, 4364.103, 4107.564, 4174.872, 4194.615
1722051826.2612,2024-07-26 20:43:46.261,49,false,0.0,4232.18, 4369.615, 4104.103, 4177.82, 4190.769
1722051826.269,2024-07-26 20:43:46.269,50,false,0.0,4237.564, 4369.487, 4107.308, 4176.923, 4197.436
1722051826.2768,2024-07-26 20:43:46.276,51,false,0.0,4245.128, 4371.667, 4124.359, 4187.308, 4213.846
1722051826.2846,2024-07-26 20:43:46.284,52,false,0.0,4243.077, 4372.564, 4132.949, 4196.41, 4217.692
1722051826.2924,2024-07-26 20:43:46.292,53,false,0.0,4228.846, 4360.897, 4117.308, 4184.615, 4198.59
1722051826.3002,2024-07-26 20:43:46.300,54,false,0.0,4226.41, 4355.513, 4106.923, 4173.974, 4190.513
1722051826.308,2024-07-26 20:43:46.308,55,false,0.0,4236.667, 4368.077, 4114.231, 4175.0, 4205.128
1722051826.3159,2024-07-26 20:43:46.315,56,false,0.0,4235.0, 4372.949, 4111.282, 4165.641, 4208.077
1722051826.3237,2024-07-26 20:43:46.323,57,false,0.0,4230.769, 4369.615, 4103.974, 4154.615, 4204.231
1722051826.3315,2024-07-26 20:43:46.331,58,false,0.0,4242.82, 4377.82, 4115.769, 4160.0, 4216.923
1722051826.3393,2024-07-26 20:43:46.339,59,false,0.0,4247.692, 4381.026, 4120.513, 4163.077, 4222.82
1722051826.3471,2024-07-26 20:43:46.347,60,false,0.0,4231.41, 4365.769, 4098.333, 4154.231, 4208.718
1722051826.3549,2024-07-26 20:43:46.354,61,false,0.0,4218.974, 4353.59, 4081.282, 4148.461, 4199.744
1722051826.3627,2024-07-26 20:43:46.362,62,false,0.0,4223.461, 4359.872, 4089.359, 4151.795, 4205.513
1722051826.3705,2024-07-26 20:43:46.370,63,false,0.0,4231.795, 4378.59, 4104.744, 4161.282, 4217.692
1722051826.3784,2024-07-26 20:43:46.378,64,false,0.0,4231.41, 4387.564, 4106.923, 4164.872, 4222.051
1722051826.3862,2024-07-26 20:43:46.386,65,false,0.0,4225.128, 4375.0, 4095.513, 4153.077, 4210.641
1722051826.394,2024-07-26 20:43:46.394,66,false,0.0,4227.18, 4368.718, 4089.231, 4143.205, 4203.461
1722051826.4018,2024-07-26 20:43:46.401,67,false,0.0,4229.359, 4378.974, 4092.821, 4143.461, 4207.308
1722051826.4096,2024-07-26 20:43:46.409,68,false,0.0,4212.949, 4372.949, 4087.949, 4139.103, 4201.026
1722051826.4174,2024-07-26 20:43:46.417,69,false,0.0,4197.564, 4352.564, 4074.231, 4134.872, 4189.744
1722051826.4252,2024-07-26 20:43:46.425,70,false,0.0,4198.718, 4345.256, 4064.615, 4137.051, 4183.461
1722051826.433,2024-07-26 20:43:46.433,71,false,0.0,4196.026, 4343.077, 4059.103, 4136.539, 4176.667
1722051826.4409,2024-07-26 20:43:46.440,72,false,0.0,4194.487, 4345.513, 4062.821, 4141.667, 4187.308
1722051826.4487,2024-07-26 20:43:46.448,73,false,0.0,4210.128, 4363.718, 4076.026, 4151.154, 4210.0
1722051826.4565,2024-07-26 20:43:46.456,74,false,0.0,4221.667, 4376.026, 4084.615, 4146.282, 4207.82
1722051826.4643,2024-07-26 20:43:46.464,75,false,0.0,4224.872, 4370.641, 4093.205, 4141.795, 4203.974
1722051826.4721,2024-07-26 20:43:46.472,76,false,0.0,4233.846, 4366.282, 4102.564, 4149.359, 4223.205
1722051826.4799,2024-07-26 20:43:46.479,77,false,0.0,4230.513, 4362.18, 4092.564, 4148.974, 4223.077
1722051826.4877,2024-07-26 20:43:46.487,78,false,0.0,4215.513, 4356.282, 4078.974, 4145.897, 4200.513
1722051826.4955,2024-07-26 20:43:46.495,79,false,0.0,4217.308, 4363.205, 4088.718, 4152.692, 4201.923
1722051826.5034,2024-07-26 20:43:46.503,80,false,0.0,4228.718, 4372.692, 4097.564, 4155.641, 4218.461
1722051826.5112,2024-07-26 20:43:46.511,81,false,0.0,4232.436, 4366.282, 4085.769, 4154.487, 4220.769
1722051826.519,2024-07-26 20:43:46.519,82,false,0.0,4231.923, 4355.385, 4073.846, 4152.564, 4214.872
1722051826.5268,2024-07-26 20:43:46.526,83,false,0.0,4225.128, 4355.897, 4072.308, 4146.41, 4213.333
1722051826.5346,2024-07-26 20:43:46.534,84,false,0.0,4220.513, 4360.897, 4078.974, 4153.077, 4222.436
1722051826.5424,2024-07-26 20:43:46.542,85,false,0.0,4229.359, 4358.718, 4089.103, 4168.333, 4232.564
1722051826.5502,2024-07-26 20:43:46.550,86,false,0.0,4233.333, 4355.769, 4088.718, 4163.077, 4224.872
1722051826.558,2024-07-26 20:43:46.558,87,false,0.0,4223.461, 4361.795, 4081.923, 4150.0, 4211.539
1722051826.5659,2024-07-26 20:43:46.565,88,false,0.0,4215.513, 4365.128, 4084.359, 4150.385, 4208.974
1722051826.5737,2024-07-26 20:43:46.573,89,false,0.0,4215.256, 4358.718, 4087.051, 4153.461, 4208.461
1722051826.5815,2024-07-26 20:43:46.581,90,false,0.0,4221.154, 4358.333, 4080.897, 4158.846, 4211.539
1722051826.5893,2024-07-26 20:43:46.589,91,false,0.0,4227.308, 4365.513, 4077.949, 4167.564, 4221.026
1722051826.5971,2024-07-26 20:43:46.597,92,false,0.0,4225.769, 4368.205, 4079.615, 4166.667, 4225.256
1722051826.6049,2024-07-26 20:43:46.604,93,false,0.0,4222.051, 4365.897, 4073.077, 4161.667, 4221.923
1722051826.6127,2024-07-26 20:43:46.612,94,false,0.0,4219.872, 4359.487, 4063.974, 4158.077, 4216.41
1722051826.6205,2024-07-26 20:43:46.620,95,false,0.0,4218.461, 4361.923, 4073.205, 4152.949, 4218.205
1722051826.6284,2024-07-26 20:43:46.628,96,false,0.0,4222.308, 4379.487, 4089.359, 4153.59, 4227.051
1722051826.6362,2024-07-26 20:43:46.636,97,false,0.0,4218.205, 4373.846, 4077.821, 4151.539, 4216.923
1722051826.644,2024-07-26 20:43:46.644,98,false,0.0,4203.077, 4344.231, 4056.282, 4139.872, 4195.513
1722051826.6518,2024-07-26 20:43:46.651,99,false,0.0,4205.513, 4347.564, 4067.436, 4140.769, 4207.308
1722051826.6596,2024-07-26 20:43:46.659,100,false,0.0,4218.974, 4368.205, 4091.282, 4153.974, 4233.846
1722051826.6674,2024-07-26 20:43:46.667,101,false,0.0,4217.436, 4360.641, 4095.641, 4159.103, 4233.59
1722051826.6752,2024-07-26 20:43:46.675,102,false,0.0,4219.744, 4355.385, 4096.795, 4161.795, 4227.82
1722051826.683,2024-07-26 20:43:46.683,103,false,0.0,4245.385, 4364.487, 4101.539, 4162.18, 4241.795
1722051826.6909,2024-07-26 20:43:46.690,104,false,0.0,4285.385, 4361.923, 4102.949, 4152.949, 4273.59
1722051826.6987,2024-07-26 20:43:46.698,105,false,0.0,4323.974, 4366.154, 4108.205, 4148.461, 4308.846
1722051826.7065,2024-07-26 20:43:46.706,106,false,0.0,4341.154, 4379.103, 4105.128, 4147.82, 4315.256
1722051826.7143,2024-07-26 20:43:46.714,107,false,0.0,4350.641, 4377.051, 4089.872, 4141.923, 4306.795
1722051826.7221,2024-07-26 20:43:46.722,108,false,0.0,4382.051, 4379.487, 4088.718, 4144.872, 4329.103
1722051826.7299,2024-07-26 20:43:46.729,109,false,0.0,4400.513, 4384.615, 4090.769, 4153.077, 4349.231
1722051826.7377,2024-07-26 20:43:46.737,110,false,0.0,4384.103, 4369.103, 4076.026, 4149.231, 4332.82
1722051826.7455,2024-07-26 20:43:46.745,111,false,0.0,4374.615, 4362.308, 4072.949, 4143.333, 4322.18
1722051826.7534,2024-07-26 20:43:46.753,112,false,0.0,4368.333, 4374.359, 4088.205, 4143.461, 4321.667
1722051826.7612,2024-07-26 20:43:46.761,113,false,0.0,4348.59, 4374.359, 4095.641, 4147.18, 4308.59
1722051826.769,2024-07-26 20:43:46.769,114,false,0.0,4350.641, 4371.795, 4101.795, 4155.385, 4308.846
1722051826.7768,2024-07-26 20:43:46.776,115,false,0.0,4356.795, 4373.461, 4111.154, 4157.051, 4313.846
1722051826.7846,2024-07-26 20:43:46.784,116,false,0.0,4331.026, 4362.18, 4109.231, 4150.641, 4297.051
1722051826.7924,2024-07-26 20:43:46.792,117,false,0.0,4320.128, 4356.539, 4107.18, 4154.103, 4290.897
1722051826.8002,2024-07-26 20:43:46.800,118,false,0.0,4331.923, 4370.256, 4111.795, 4161.026, 4297.308
1722051826.808,2024-07-26 20:43:46.808,119,false,0.0,4318.333, 4379.487, 4108.846, 4157.564, 4285.385
1722051826.8159,2024-07-26 20:43:46.815,120,false,0.0,4301.667, 4375.641, 4104.872, 4155.641, 4277.82
1722051826.8237,2024-07-26 20:43:46.823,121,false,0.0,4303.205, 4366.667, 4107.949, 4158.461, 4279.487
1722051826.8315,2024-07-26 20:43:46.831,122,false,0.0,4292.82, 4363.077, 4110.769, 4159.744, 4267.18
1722051826.8393,2024-07-26 20:43:46.839,123,false,0.0,4282.18, 4373.333, 4113.205, 4162.564, 4264.872
1722051826.8471,2024-07-26 20:43:46.847,124,false,0.0,4282.564, 4375.769, 4108.974, 4160.256, 4271.026
1722051826.8549,2024-07-26 20:43:46.854,125,false,0.0,4272.82, 4362.436, 4096.795, 4152.692, 4254.487
1722051826.8627,2024-07-26 20:43:46.862,126,false,0.0,4272.051, 4367.82, 4100.256, 4155.769, 4248.333
1722051826.8705,2024-07-26 20:43:46.870,127,false,0.0,4285.128, 4385.128, 4114.231, 4162.564, 4267.564
1722051826.8784,2024-07-26 20:43:46.878,0,false,0.0,4278.205, 4376.154, 4108.846, 4158.333, 4269.103
1722051826.8862,2024-07-26 20:43:46.886,1,false,0.0,4271.026, 4361.667, 4098.461, 4157.82, 4263.333
1722051826.894,2024-07-26 20:43:46.894,2,false,0.0,4286.282, 4370.897, 4105.513, 4168.59, 4274.744
1722051826.9018,2024-07-26 20:43:46.901,3,false,0.0,4291.282, 4378.59, 4112.18, 4173.846, 4276.795
1722051826.9096,2024-07-26 20:43:46.909,4,false,0.0,4279.103, 4367.18, 4105.385, 4165.897, 4266.667
1722051826.9174,2024-07-26 20:43:46.917,5,false,0.0,4270.0, 4354.872, 4093.205, 4156.539, 4256.923
1722051826.9252,2024-07-26 20:43:46.925,6,false,0.0,4264.744, 4355.128, 4083.59, 4156.923, 4243.974
1722051826.933,2024-07-26 20:43:46.933,7,false,0.0,4264.231, 4364.359, 4086.667, 4157.18, 4244.231
1722051826.9409,2024-07-26 20:43:46.940,8,false,0.0,4260.641, 4371.026, 4097.436, 4143.59, 4252.436
1722051826.9487,2024-07-26 20:43:46.948,9,false,0.0,4250.769, 4371.795, 4099.103, 4137.051, 4241.539
1722051826.9565,2024-07-26 20:43:46.956,10,false,0.0,4259.103, 4372.692, 4097.564, 4154.615, 4239.231
1722051826.9643,2024-07-26 20:43:46.964,11,false,0.0,4274.231, 4369.487, 4101.539, 4165.256, 4258.461
1722051826.9721,2024-07-26 20:43:46.972,12,false,0.0,4261.41, 4363.461, 4103.333, 4156.667, 4254.744
1722051826.9799,2024-07-26 20:43:46.979,13,false,0.0,4243.461, 4364.231, 4099.872, 4155.0, 4231.923
1722051826.9877,2024-07-26 20:43:46.987,14,false,0.0,4242.82, 4361.539, 4089.487, 4156.41, 4223.333
1722051826.9955,2024-07-26 20:43:46.995,15,false,0.0,4243.333, 4355.769, 4080.513, 4150.128, 4225.385
1722051827.0034,2024-07-26 20:43:47.003,16,false,0.0,4249.487, 4365.769, 4092.179, 4154.615, 4237.308
1722051827.0112,2024-07-26 20:43:47.011,17,false,0.0,4256.667, 4369.487, 4105.256, 4159.615, 4245.897
1722051827.019,2024-07-26 20:43:47.019,18,false,0.0,4244.615, 4350.897, 4093.846, 4148.59, 4229.487
1722051827.0268,2024-07-26 20:43:47.026,19,false,0.0,4236.795, 4350.769, 4087.692, 4149.359, 4223.461
1722051827.0346,2024-07-26 20:43:47.034,20,false,0.0,4246.026, 4369.744, 4100.385, 4164.103, 4241.795
1722051827.0424,2024-07-26 20:43:47.042,21,false,0.0,4245.641, 4366.026, 4100.897, 4161.539, 4240.641
1722051827.0502,2024-07-26 20:43:47.050,22,false,0.0,4246.282, 4359.615, 4097.82, 4157.18, 4236.282
1722051827.058,2024-07-26 20:43:47.058,23,false,0.0,4259.359, 4372.436, 4106.026, 4168.974, 4258.846
1722051827.0659,2024-07-26 20:43:47.065,24,false,0.0,4255.769, 4369.487, 4100.0, 4171.667, 4265.513
1722051827.0737,2024-07-26 20:43:47.073,25,false,0.0,4245.128, 4357.692, 4091.667, 4163.974, 4251.282
1722051827.0815,2024-07-26 20:43:47.081,26,false,0.0,4252.436, 4370.0, 4106.154, 4164.359, 4255.641
1722051827.0893,2024-07-26 20:43:47.089,27,false,0.0,4252.949, 4376.41, 4110.385, 4166.41, 4260.513
1722051827.0971,2024-07-26 20:43:47.097,28,false,0.0,4247.436, 4361.795, 4094.359, 4170.513, 4258.718
1722051827.1049,2024-07-26 20:43:47.104,29,false,0.0,4265.256, 4364.359, 4092.564, 4179.487, 4275.897
1722051827.1127,2024-07-26 20:43:47.112,30,false,0.0,4274.231, 4375.128, 4094.359, 4174.487, 4279.103
1722051827.1205,2024-07-26 20:43:47.120,31,false,0.0,4249.615, 4363.846, 4084.615, 4162.051, 4250.513
1722051827.1284,2024-07-26 20:43:47.128,32,false,0.0,4240.641, 4354.359, 4089.744, 4167.051, 4244.487
1722051827.1362,2024-07-26 20:43:47.136,33,false,0.0,4258.846, 4357.692, 4097.82, 4174.872, 4263.333
1722051827.144,2024-07-26 20:43:47.144,34,false,0.0,4255.513, 4350.0, 4080.513, 4166.026, 4260.0
1722051827.1518,2024-07-26 20:43:47.151,35,false,0.0,4237.82, 4345.128, 4067.949, 4158.461, 4247.692
1722051827.1596,2024-07-26 20:43:47.159,36,false,0.0,4244.872, 4360.897, 4080.769, 4165.769, 4253.205
1722051827.1674,2024-07-26 20:43:47.167,37,false,0.0,4254.359, 4368.205, 4087.949, 4173.205, 4258.205
1722051827.1752,2024-07-26 20:43:47.175,38,false,0.0,4243.974, 4355.0, 4083.846, 4171.667, 4253.846
1722051827.183,2024-07-26 20:43:47.183,39,false,0.0,4242.82, 4349.103, 4088.974, 4170.769, 4250.769
1722051827.1909,2024-07-26 20:43:47.190,40,false,0.0,4247.82, 4358.205, 4094.872, 4171.282, 4243.846
1722051827.1987,2024-07-26 20:43:47.198,41,false,0.0,4228.974, 4361.795, 4088.333, 4161.667, 4231.795
1722051827.2065,2024-07-26 20:43:47.206,42,false,0.0,4212.949, 4350.0, 4080.897, 4152.308, 4230.385
1722051827.2143,2024-07-26 20:43:47.214,43,false,0.0,4230.641, 4342.692, 4084.872, 4164.872, 4245.0
1722051827.2221,2024-07-26 20:43:47.222,44,false,0.0,4251.923, 4359.359, 4096.539, 4184.231, 4260.128
1722051827.2299,2024-07-26 20:43:47.229,45,false,0.0,4251.539, 4371.923, 4100.513, 4180.897, 4257.82
1722051827.2377,2024-07-26 20:43:47.237,46,false,0.0,4242.051, 4354.615, 4091.154, 4163.077, 4241.154
1722051827.2455,2024-07-26 20:43:47.245,47,false,0.0,4236.923, 4342.949, 4085.128, 4157.051, 4235.128
1722051827.2534,2024-07-26 20:43:47.253,48,false,0.0,4243.077, 4356.539, 4092.308, 4166.154, 4247.308
1722051827.2612,2024-07-26 20:43:47.261,49,false,0.0,4253.718, 4366.026, 4099.615, 4176.282, 4252.436
1722051827.269,2024-07-26 20:43:47.269,50,false,0.0,4251.282, 4371.667, 4101.154, 4179.487, 4240.897
1722051827.2768,2024-07-26 20:43:47.276,51,false,0.0,4241.41, 4375.769, 4100.385, 4178.846, 4233.333
1722051827.2846,2024-07-26 20:43:47.284,52,false,0.0,4235.256, 4352.949, 4091.923, 4175.513, 4233.718
1722051827.2924,2024-07-26 20:43:47.292,53,false,0.0,4230.385, 4331.795, 4080.897, 4170.0, 4230.128
1722051827.3002,2024-07-26 20:43:47.300,54,false,0.0,4234.231, 4348.59, 4080.513, 4170.256, 4226.923
1722051827.308,2024-07-26 20:43:47.308,55,false,0.0,4240.641, 4360.897, 4084.359, 4170.897, 4225.897
1722051827.3159,2024-07-26 20:43:47.315,56,false,0.0,4229.615, 4349.359, 4083.846, 4164.231, 4223.846
1722051827.3237,2024-07-26 20:43:47.323,57,false,0.0,4217.692, 4347.692, 4081.41, 4166.795, 4229.103
1722051827.3315,2024-07-26 20:43:47.331,58,false,0.0,4220.769, 4343.077, 4072.564, 4178.205, 4233.718
1722051827.3393,2024-07-26 20:43:47.339,59,false,0.0,4217.692, 4327.308, 4063.461, 4170.0, 4224.615
1722051827.3471,2024-07-26 20:43:47.347,60,false,0.0,4211.282, 4341.026, 4074.231, 4157.949, 4226.282
1722051827.3549,2024-07-26 20:43:47.354,61,false,0.0,4223.846, 4369.487, 4095.128, 4172.82, 4251.41
1722051827.3627,2024-07-26 20:43:47.362,62,false,0.0,4238.846, 4364.872, 4098.205, 4186.667, 4264.872
1722051827.3705,2024-07-26 20:43:47.370,63,false,0.0,4234.615, 4345.0, 4085.385, 4177.051, 4251.923
1722051827.3784,2024-07-26 20:43:47.378,64,false,0.0,4223.205, 4342.564, 4074.744, 4168.718, 4238.205
1722051827.3862,2024-07-26 20:43:47.386,65,false,0.0,4220.513, 4349.615, 4073.077, 4167.949, 4237.82
1722051827.394,2024-07-26 20:43:47.394,66,false,0.0,4223.333, 4352.564, 4077.692, 4166.667, 4241.923
1722051827.4018,2024-07-26 20:43:47.401,67,false,0.0,4222.692, 4347.692, 4080.513, 4173.333, 4242.82
1722051827.4096,2024-07-26 20:43:47.409,68,false,0.0,4223.077, 4340.256, 4080.385, 4177.82, 4243.846
1722051827.4174,2024-07-26 20:43:47.417,69,false,0.0,4229.103, 4339.872, 4083.333, 4165.128, 4246.923
1722051827.4252,2024-07-26 20:43:47.425,70,false,0.0,4224.487, 4341.41, 4081.795, 4152.18, 4240.385
1722051827.433,2024-07-26 20:43:47.433,71,false,0.0,4207.692, 4338.205, 4071.795, 4149.615, 4223.718
1722051827.4409,2024-07-26 20:43:47.440,72,false,0.0,4202.82, 4334.103, 4069.231, 4145.513, 4217.308
1722051827.4487,2024-07-26 20:43:47.448,73,false,0.0,4207.949, 4330.128, 4076.667, 4142.949, 4224.744
1722051827.4565,2024-07-26 20:43:47.456,74,false,0.0,4204.744, 4328.461, 4080.256, 4151.667, 4229.487
1722051827.4643,2024-07-26 20:43:47.464,75,false,0.0,4197.949, 4329.872, 4077.179, 4159.744, 4223.718
1722051827.4721,2024-07-26 20:43:47.472,76,false,0.0,4191.154, 4330.385, 4069.744, 4152.051, 4211.923
1722051827.4799,2024-07-26 20:43:47.479,77,false,0.0,4186.026, 4335.641, 4063.974, 4141.282, 4208.077
1722051827.4877,2024-07-26 20:43:47.487,78,false,0.0,4193.59, 4342.949, 4071.667, 4147.436, 4218.718
1722051827.4955,2024-07-26 20:43:47.495,79,false,0.0,4203.205, 4336.795, 4081.026, 4162.949, 4225.769
1722051827.5034,2024-07-26 20:43:47.503,80,false,0.0,4201.026, 4330.769, 4073.077, 4169.744, 4222.949
1722051827.5112,2024-07-26 20:43:47.511,81,false,0.0,4203.333, 4341.41, 4064.872, 4168.846, 4225.513
1722051827.519,2024-07-26 20:43:47.519,82,false,0.0,4213.974, 4348.077, 4073.205, 4165.769, 4231.795
1722051827.5268,2024-07-26 20:43:47.526,83,false,0.0,4215.769, 4342.308, 4082.308, 4163.461, 4233.846
1722051827.5346,2024-07-26 20:43:47.534,84,false,0.0,4210.641, 4340.256, 4083.205, 4167.82, 4237.82
1722051827.5424,2024-07-26 20:43:47.542,85,false,0.0,4207.18, 4339.487, 4081.026, 4172.949, 4239.487
1722051827.5502,2024-07-26 20:43:47.550,86,false,0.0,4206.154, 4337.308, 4078.077, 4172.18, 4233.461
1722051827.558,2024-07-26 20:43:47.558,87,false,0.0,4214.615, 4344.487, 4082.564, 4175.641, 4234.487
1722051827.5659,2024-07-26 20:43:47.565,88,false,0.0,4225.256, 4349.359, 4090.256, 4178.205, 4243.333
1722051827.5737,2024-07-26 20:43:47.573,89,false,0.0,4219.615, 4337.564, 4083.59, 4166.41, 4245.0
1722051827.5815,2024-07-26 20:43:47.581,90,false,0.0,4210.769, 4328.461, 4075.385, 4159.487, 4245.641
1722051827.5893,2024-07-26 20:43:47.589,91,false,0.0,4220.641, 4339.872, 4085.641, 4172.949, 4253.59
1722051827.5971,2024-07-26 20:43:47.597,92,false,0.0,4233.333, 4353.846, 4095.513, 4180.897, 4258.718
1722051827.6049,2024-07-26 20:43:47.604,93,false,0.0,4226.41, 4349.231, 4089.231, 4170.769, 4256.923
1722051827.6127,2024-07-26 20:43:47.612,94,false,0.0,4214.487, 4337.82, 4086.41, 4165.769, 4254.872
1722051827.6205,2024-07-26 20:43:47.620,95,false,0.0,4220.641, 4341.154, 4099.103, 4177.308, 4258.974
1722051827.6284,2024-07-26 20:43:47.628,96,false,0.0,4234.872, 4353.461, 4111.795, 4189.872, 4268.974
1722051827.6362,2024-07-26 20:43:47.636,97,false,0.0,4236.026, 4360.769, 4108.333, 4186.667, 4272.564
1722051827.644,2024-07-26 20:43:47.644,98,false,0.0,4228.461, 4362.82, 4094.744, 4171.795, 4263.846
1722051827.6518,2024-07-26 20:43:47.651,99,false,0.0,4225.128, 4354.744, 4085.897, 4162.949, 4255.641
1722051827.6596,2024-07-26 20:43:47.659,100,false,0.0,4222.692, 4337.18, 4083.718, 4165.0, 4253.461
1722051827.6674,2024-07-26 20:43:47.667,101,false,0.0,4224.872, 4335.513, 4088.974, 4173.333, 4255.641
1722051827.6752,2024-07-26 20:43:47.675,102,false,0.0,4237.692, 4358.461, 4105.641, 4186.795, 4265.0
1722051827.683,2024-07-26 20:43:47.683,103,false,0.0,4241.539, 4373.461, 4116.026, 4190.897, 4266.154
1722051827.6909,2024-07-26 20:43:47.690,104,false,0.0,4226.667, 4360.513, 4103.718, 4178.59, 4249.103
1722051827.6987,2024-07-26 20:43:47.698,105,false,0.0,4218.974, 4344.487, 4087.949, 4171.026, 4239.231
1722051827.7065,2024-07-26 20:43:47.706,106,false,0.0,4224.744, 4349.103, 4085.0, 4172.436, 4241.923
1722051827.7143,2024-07-26 20:43:47.714,107,false,0.0,4221.41, 4358.077, 4082.692, 4166.923, 4232.949
1722051827.7221,2024-07-26 20:43:47.722,108,false,0.0,4211.154, 4352.949, 4079.487, 4164.359, 4222.949
1722051827.7299,2024-07-26 20:43:47.729,109,false,0.0,4211.026, 4346.539, 4085.513, 4175.385, 4233.205
1722051827.7377,2024-07-26 20:43:47.737,110,false,0.0,4211.923, 4346.154, 4087.436, 4179.103, 4239.744
1722051827.7455,2024-07-26 20:43:47.745,111,false,0.0,4200.128, 4342.949, 4074.487, 4168.974, 4223.333
1722051827.7534,2024-07-26 20:43:47.753,112,false,0.0,4191.795, 4348.461, 4072.564, 4169.744, 4213.077
1722051827.7612,2024-07-26 20:43:47.761,113,false,0.0,4206.154, 4367.949, 4095.256, 4187.18, 4228.077
1722051827.769,2024-07-26 20:43:47.769,114,false,0.0,4222.051, 4373.077, 4105.385, 4194.615, 4240.385
1722051827.7768,2024-07-26 20:43:47.776,115,false,0.0,4213.846, 4357.436, 4082.949, 4179.872, 4228.461
1722051827.7846,2024-07-26 20:43:47.784,116,false,0.0,4198.59, 4343.718, 4061.795, 4163.846, 4211.923
1722051827.7924,2024-07-26 20:43:47.792,117,false,0.0,4196.539, 4340.769, 4064.872, 4163.59, 4209.359
1722051827.8002,2024-07-26 20:43:47.800,118,false,0.0,4200.0, 4350.128, 4077.564, 4171.667, 4216.795
1722051827.808,2024-07-26 20:43:47.808,119,false,0.0,4202.051, 4364.103, 4085.0, 4176.41, 4224.615
1722051827.8159,2024-07-26 20:43:47.815,120,false,0.0,4199.872, 4361.539, 4081.154, 4174.872, 4221.282
1722051827.8237,2024-07-26 20:43:47.823,121,false,0.0,4192.564, 4352.051, 4072.179, 4173.333, 4211.667
1722051827.8315,2024-07-26 20:43:47.831,122,false,0.0,4194.231, 4354.487, 4075.769, 4177.82, 4218.077
1722051827.8393,2024-07-26 20:43:47.839,123,false,0.0,4205.513, 4354.359, 4088.333, 4184.359, 4234.231
1722051827.8471,2024-07-26 20:43:47.847,124,false,0.0,4208.333, 4345.641, 4086.539, 4186.41, 4235.256
1722051827.8549,2024-07-26 20:43:47.854,125,false,0.0,4206.923, 4344.231, 4071.154, 4184.615, 4230.128
1722051827.8627,2024-07-26 20:43:47.862,126,false,0.0,4213.59, 4346.41, 4062.436, 4182.18, 4234.487
1722051827.8705,2024-07-26 20:43:47.870,127,false,0.0,4215.897, 4340.128, 4059.359, 4181.282, 4236.41
1722051827.8784,2024-07-26 20:43:47.878,0,false,0.0,4207.564, 4328.718, 4050.0, 4178.59, 4230.641
1722051827.8862,2024-07-26 20:43:47.886,1,false,0.0,4201.282, 4324.744, 4042.692, 4169.359, 4227.436
1722051827.894,2024-07-26 20:43:47.894,2,false,0.0,4200.641, 4334.359, 4046.923, 4160.897, 4224.744
1722051827.9018,2024-07-26 20:43:47.901,3,false,0.0,4199.231, 4342.051, 4053.846, 4159.487, 4220.128
1722051827.9096,2024-07-26 20:43:47.909,4,false,0.0,4197.18, 4336.154, 4061.41, 4159.615, 4218.333
1722051827.9174,2024-07-26 20:43:47.917,5,false,0.0,4194.744, 4331.41, 4071.41, 4161.282, 4216.282
1722051827.9252,2024-07-26 20:43:47.925,6,false,0.0,4192.564, 4332.692, 4070.0, 4167.564, 4210.769
1722051827.933,2024-07-26 20:43:47.933,7,false,0.0,4195.128, 4332.308, 4060.0, 4173.718, 4210.256
1722051827.9409,2024-07-26 20:43:47.940,8,false,0.0,4201.539, 4334.487, 4064.231, 4178.077, 4218.205
1722051827.9487,2024-07-26 20:43:47.948,9,false,0.0,4208.59, 4338.846, 4081.026, 4186.667, 4229.872
1722051827.9565,2024-07-26 20:43:47.956,10,false,0.0,4215.769, 4342.436, 4094.103, 4198.077, 4237.949
1722051827.9643,2024-07-26 20:43:47.964,11,false,0.0,4212.949, 4346.667, 4097.051, 4195.385, 4227.82
1722051827.9721,2024-07-26 20:43:47.972,12,false,0.0,4194.615, 4343.077, 4088.846, 4173.846, 4203.59
1722051827.9799,2024-07-26 20:43:47.979,13,false,0.0,4180.769, 4335.897, 4079.487, 4161.539, 4193.846
1722051827.9877,2024-07-26 20:43:47.987,14,false,0.0,4179.487, 4334.359, 4075.769, 4171.41, 4198.461
1722051827.9955,2024-07-26 20:43:47.995,15,false,0.0,4180.256, 4330.0, 4069.744, 4181.41, 4201.923
1722051828.0034,2024-07-26 20:43:48.003,16,false,0.0,4190.256, 4335.513, 4066.41, 4186.026, 4212.308
1722051828.0112,2024-07-26 20:43:48.011,17,false,0.0,4203.974, 4356.923, 4070.897, 4188.974, 4219.487
1722051828.019,2024-07-26 20:43:48.019,18,false,0.0,4200.256, 4355.897, 4072.308, 4181.667, 4210.128
1722051828.0268,2024-07-26 20:43:48.026,19,false,0.0,4199.359, 4342.18, 4079.231, 4183.205, 4215.256
1722051828.0346,2024-07-26 20:43:48.034,20,false,0.0,4215.897, 4356.154, 4095.0, 4203.59, 4236.667
1722051828.0424,2024-07-26 20:43:48.042,21,false,0.0,4219.615, 4365.641, 4095.641, 4206.667, 4235.0
1722051828.0502,2024-07-26 20:43:48.050,22,false,0.0,4214.359, 4351.026, 4091.282, 4193.461, 4226.539
1722051828.058,2024-07-26 20:43:48.058,23,false,0.0,4223.461, 4353.718, 4102.308, 4194.359, 4237.692
1722051828.0659,2024-07-26 20:43:48.065,24,false,0.0,4224.487, 4362.051, 4103.205, 4192.949, 4243.205
1722051828.0737,2024-07-26 20:43:48.073,25,false,0.0,4215.385, 4348.59, 4089.487, 4185.128, 4241.41
1722051828.0815,2024-07-26 20:43:48.081,26,false,0.0,4222.564, 4342.692, 4088.718, 4194.359, 4245.513
1722051828.0893,2024-07-26 20:43:48.089,27,false,0.0,4226.923, 4349.615, 4092.949, 4198.974, 4238.205
1722051828.0971,2024-07-26 20:43:48.097,28,false,0.0,4216.154, 4346.282, 4088.59, 4187.436, 4232.949
1722051828.1049,2024-07-26 20:43:48.104,29,false,0.0,4219.615, 4346.026, 4087.308, 4189.103, 4246.667
1722051828.1127,2024-07-26 20:43:48.112,30,false,0.0,4228.974, 4354.744, 4086.282, 4191.41, 4243.974
1722051828.1205,2024-07-26 20:43:48.120,31,false,0.0,4219.359, 4355.897, 4082.692, 4176.154, 4227.18
1722051828.1284,2024-07-26 20:43:48.128,32,false,0.0,4216.282, 4354.231, 4087.308, 4175.897, 4239.744
1722051828.1362,2024-07-26 20:43:48.136,33,false,0.0,4233.205, 4355.0, 4092.949, 4194.231, 4258.077
1722051828.144,2024-07-26 20:43:48.144,34,false,0.0,4237.949, 4352.564, 4089.872, 4195.769, 4246.539
1722051828.1518,2024-07-26 20:43:48.151,35,false,0.0,4225.641, 4355.385, 4092.179, 4187.051, 4239.615
1722051828.1596,2024-07-26 20:43:48.159,36,false,0.0,4220.769, 4362.82, 4101.539, 4189.744, 4250.0
1722051828.1674,2024-07-26 20:43:48.167,37,false,0.0,4215.769, 4354.359, 4093.205, 4185.256, 4236.41
1722051828.1752,2024-07-26 20:43:48.175,38,false,0.0,4198.974, 4336.282, 4070.641, 4163.461, 4207.436
1722051828.183,2024-07-26 20:43:48.183,39,false,0.0,4192.949, 4337.564, 4070.256, 4153.333, 4210.0
1722051828.1909,2024-07-26 20:43:48.190,40,false,0.0,4202.82, 4350.769, 4083.59, 4164.231, 4229.487
1722051828.1987,2024-07-26 20:43:48.198,41,false,0.0,4202.436, 4346.41, 4073.205, 4169.103, 4224.744
1722051828.2065,2024-07-26 20:43:48.206,42,false,0.0,4194.231, 4340.385, 4060.897, 4163.718, 4211.282
1722051828.2143,2024-07-26 20:43:48.214,43,false,0.0,4197.949, 4355.769, 4075.128, 4162.18, 4220.385
1722051828.2221,2024-07-26 20:43:48.222,44,false,0.0,4202.564, 4360.128, 4083.077, 4157.308, 4236.026
1722051828.2299,2024-07-26 20:43:48.229,45,false,0.0,4198.333, 4337.949, 4075.0, 4154.103, 4235.897
1722051828.2377,2024-07-26 20:43:48.237,46,false,0.0,4196.41, 4330.897, 4081.026, 4171.667, 4229.231
1722051828.2455,2024-07-26 20:43:48.245,47,false,0.0,4195.513, 4339.103, 4087.821, 4185.256, 4226.795
1722051828.2534,2024-07-26 20:43:48.253,48,false,0.0,4193.974, 4331.539, 4082.051, 4173.974, 4227.949
1722051828.2612,2024-07-26 20:43:48.261,49,false,0.0,4204.744, 4334.359, 4091.282, 4173.461, 4238.59
1722051828.269,2024-07-26 20:43:48.269,50,false,0.0,4219.487, 4361.282, 4108.718, 4192.82, 4255.385
1722051828.2768,2024-07-26 20:43:48.276,51,false,0.0,4218.718, 4365.128, 4103.846, 4193.205, 4258.077
1722051828.2846,2024-07-26 20:43:48.284,52,false,0.0,4211.282, 4344.103, 4089.103, 4176.795, 4243.461
1722051828.2924,2024-07-26 20:43:48.292,53,false,0.0,4212.692, 4342.949, 4088.846, 4176.282, 4236.282
1722051828.3002,2024-07-26 20:43:48.300,54,false,0.0,4219.615, 4357.949, 4102.949, 4188.333, 4248.846
1722051828.308,2024-07-26 20:43:48.308,55,false,0.0,4223.333, 4363.846, 4113.59, 4192.564, 4259.487
1722051828.3159,2024-07-26 20:43:48.315,56,false,0.0,4221.282, 4363.846, 4105.256, 4187.692, 4251.154
1722051828.3237,2024-07-26 20:43:48.323,57,false,0.0,4223.205, 4367.949, 4101.923, 4188.846, 4247.051
1722051828.3315,2024-07-26 20:43:48.331,58,false,0.0,4233.846, 4380.0, 4125.0, 4200.769, 4263.718
1722051828.3393,2024-07-26 20:43:48.339,59,false,0.0,4231.282, 4385.128, 4134.487, 4202.436, 4269.359
1722051828.3471,2024-07-26 20:43:48.347,60,false,0.0,4216.026, 4371.026, 4116.795, 4193.333, 4253.59
1722051828.3549,2024-07-26 20:43:48.354,61,false,0.0,4232.051, 4372.949, 4127.436, 4209.231, 4260.769
1722051828.3627,2024-07-26 20:43:48.362,62,false,0.0,4270.641, 4403.846, 4161.923, 4236.667, 4291.795
1722051828.3705,2024-07-26 20:43:48.370,63,false,0.0,4270.641, 4405.513, 4157.18, 4225.0, 4293.077
1722051828.3784,2024-07-26 20:43:48.378,64,false,0.0,4240.641, 4369.103, 4126.795, 4194.615, 4268.077
1722051828.3862,2024-07-26 20:43:48.386,65,false,0.0,4233.974, 4356.667, 4120.256, 4193.718, 4263.077
1722051828.394,2024-07-26 20:43:48.394,66,false,0.0,4239.872, 4369.487, 4123.846, 4204.744, 4271.282
1722051828.4018,2024-07-26 20:43:48.401,67,false,0.0,4234.103, 4369.231, 4120.641, 4206.026, 4267.18
1722051828.4096,2024-07-26 20:43:48.409,68,false,0.0,4235.256, 4366.667, 4125.513, 4211.026, 4264.615
1722051828.4174,2024-07-26 20:43:48.417,69,false,0.0,4238.974, 4372.051, 4125.256, 4212.18, 4267.564
1722051828.4252,2024-07-26 20:43:48.425,70,false,0.0,4222.18, 4369.615, 4104.872, 4196.539, 4253.461
1722051828.433,2024-07-26 20:43:48.433,71,false,0.0,4205.769, 4361.539, 4095.513, 4187.051, 4234.615
1722051828.4409,2024-07-26 20:43:48.440,72,false,0.0,4211.026, 4355.897, 4112.564, 4197.564, 4242.564
1722051828.4487,2024-07-26 20:43:48.448,73,false,0.0,4219.744, 4354.103, 4125.256, 4208.333, 4261.667
1722051828.4565,2024-07-26 20:43:48.456,74,false,0.0,4222.564, 4362.436, 4119.615, 4206.795, 4260.385
1722051828.4643,2024-07-26 20:43:48.464,75,false,0.0,4225.128, 4370.513, 4111.282, 4200.128, 4249.231
1722051828.4721,2024-07-26 20:43:48.472,76,false,0.0,4220.897, 4364.487, 4109.744, 4197.308, 4246.282
1722051828.4799,2024-07-26 20:43:48.479,77,false,0.0,4208.974, 4354.872, 4109.615, 4199.359, 4243.59
1722051828.4877,2024-07-26 20:43:48.487,78,false,0.0,4199.487, 4347.564, 4099.231, 4197.436, 4232.949
1722051828.4955,2024-07-26 20:43:48.495,79,false,0.0,4196.154, 4342.564, 4084.744, 4189.103, 4221.795
1722051828.5034,2024-07-26 20:43:48.503,80,false,0.0,4197.308, 4347.436, 4085.513, 4186.539, 4219.744
1722051828.5112,2024-07-26 20:43:48.511,81,false,0.0,4196.539, 4349.103, 4089.487, 4191.667, 4226.539
1722051828.519,2024-07-26 20:43:48.519,82,false,0.0,4192.564, 4336.154, 4081.795, 4195.256, 4232.564
1722051828.5268,2024-07-26 20:43:48.526,83,false,0.0,4198.59, 4333.846, 4085.641, 4198.461, 4233.718
1722051828.5346,2024-07-26 20:43:48.534,84,false,0.0,4209.231, 4348.077, 4100.641, 4199.231, 4234.103
1722051828.5424,2024-07-26 20:43:48.542,85,false,0.0,4208.846, 4358.333, 4101.154, 4192.564, 4238.974
1722051828.5502,2024-07-26 20:43:48.550,86,false,0.0,4214.359, 4366.41, 4103.077, 4195.256, 4251.667
1722051828.558,2024-07-26 20:43:48.558,87,false,0.0,4228.333, 4365.128, 4110.641, 4208.59, 4259.872
1722051828.5659,2024-07-26 20:43:48.565,88,false,0.0,4219.744, 4344.231, 4094.744, 4201.795, 4249.744
1722051828.5737,2024-07-26 20:43:48.573,89,false,0.0,4201.667, 4337.82, 4080.0, 4181.539, 4238.59
1722051828.5815,2024-07-26 20:43:48.581,90,false,0.0,4202.949, 4353.846, 4092.308, 4178.59, 4236.795
1722051828.5893,2024-07-26 20:43:48.589,91,false,0.0,4200.256, 4353.333, 4096.026, 4182.82, 4230.0
1722051828.5971,2024-07-26 20:43:48.597,92,false,0.0,4191.41, 4348.461, 4090.513, 4187.564, 4232.564
1722051828.6049,2024-07-26 20:43:48.604,93,false,0.0,4203.461, 4361.795, 4101.026, 4200.0, 4251.282
1722051828.6127,2024-07-26 20:43:48.612,94,false,0.0,4208.974, 4358.846, 4098.974, 4195.128, 4246.282
1722051828.6205,2024-07-26 20:43:48.620,95,false,0.0,4192.308, 4343.718, 4083.718, 4173.718, 4225.385
1722051828.6284,2024-07-26 20:43:48.628,96,false,0.0,4197.82, 4356.154, 4093.974, 4177.436, 4238.974
1722051828.6362,2024-07-26 20:43:48.636,97,false,0.0,4225.385, 4372.82, 4111.026, 4195.385, 4265.641
1722051828.644,2024-07-26 20:43:48.644,98,false,0.0,4231.026, 4366.154, 4107.692, 4193.461, 4262.051
1722051828.6518,2024-07-26 20:43:48.651,99,false,0.0,4214.487, 4357.18, 4100.385, 4181.539, 4245.769
1722051828.6596,2024-07-26 20:43:48.659,100,false,0.0,4195.385, 4348.205, 4093.077, 4172.18, 4237.436
1722051828.6674,2024-07-26 20:43:48.667,101,false,0.0,4186.795, 4333.077, 4086.026, 4167.82, 4235.385
1722051828.6752,2024-07-26 20:43:48.675,102,false,0.0,4200.128, 4331.923, 4091.154, 4176.795, 4242.564
1722051828.683,2024-07-26 20:43:48.683,103,false,0.0,4217.564, 4348.461, 4097.18, 4185.0, 4255.0
1722051828.6909,2024-07-26 20:43:48.690,104,false,0.0,4218.333, 4361.41, 4094.359, 4182.18, 4265.0
1722051828.6987,2024-07-26 20:43:48.698,105,false,0.0,4214.231, 4356.667, 4093.077, 4182.436, 4268.205
1722051828.7065,2024-07-26 20:43:48.706,106,false,0.0,4210.0, 4339.615, 4092.436, 4182.82, 4257.564
1722051828.7143,2024-07-26 20:43:48.714,107,false,0.0,4199.487, 4332.82, 4090.385, 4175.513, 4243.974
1722051828.7221,2024-07-26 20:43:48.722,108,false,0.0,4195.641, 4344.231, 4092.436, 4173.846, 4246.282
1722051828.7299,2024-07-26 20:43:48.729,109,false,0.0,4204.103, 4352.949, 4094.872, 4179.744, 4254.487
1722051828.7377,2024-07-26 20:43:48.737,110,false,0.0,4205.0, 4346.154, 4089.359, 4177.82, 4251.795
1722051828.7455,2024-07-26 20:43:48.745,111,false,0.0,4190.0, 4331.795, 4075.897, 4166.282, 4238.59
1722051828.7534,2024-07-26 20:43:48.753,112,false,0.0,4181.667, 4328.077, 4070.256, 4159.487, 4231.41
1722051828.7612,2024-07-26 20:43:48.761,113,false,0.0,4193.974, 4343.461, 4083.974, 4167.051, 4245.0
1722051828.769,2024-07-26 20:43:48.769,114,false,0.0,4206.923, 4354.744, 4096.282, 4179.615, 4262.18
1722051828.7768,2024-07-26 20:43:48.776,115,false,0.0,4212.051, 4350.0, 4097.949, 4188.205, 4264.487
1722051828.7846,2024-07-26 20:43:48.784,116,false,0.0,4219.744, 4349.487, 4107.949, 4194.231, 4267.18
1722051828.7924,2024-07-26 20:43:48.792,117,false,0.0,4214.744, 4347.949, 4113.59, 4191.026, 4269.103
1722051828.8002,2024-07-26 20:43:48.800,118,false,0.0,4197.692, 4338.077, 4101.795, 4183.461, 4258.974
1722051828.808,2024-07-26 20:43:48.808,119,false,0.0,4204.359, 4344.872, 4100.0, 4188.974, 4260.128
1722051828.8159,2024-07-26 20:43:48.815,120,false,0.0,4217.949, 4353.718, 4105.385, 4190.128, 4268.846
1722051828.8237,2024-07-26 20:43:48.823,121,false,0.0,4199.359, 4336.026, 4091.282, 4171.41, 4252.564
1722051828.8315,2024-07-26 20:43:48.831,122,false,0.0,4184.103, 4328.974, 4078.59, 4162.82, 4236.026
1722051828.8393,2024-07-26 20:43:48.839,123,false,0.0,4203.077, 4348.333, 4086.41, 4172.82, 4252.051
1722051828.8471,2024-07-26 20:43:48.847,124,false,0.0,4217.308, 4349.359, 4091.282, 4175.513, 4270.128
1722051828.8549,2024-07-26 20:43:48.854,125,false,0.0,4208.205, 4335.897, 4085.641, 4171.282, 4262.308
1722051828.8627,2024-07-26 20:43:48.862,126,false,0.0,4200.128, 4342.82, 4084.487, 4170.769, 4247.436
1722051828.8705,2024-07-26 20:43:48.870,127,false,0.0,4201.667, 4351.539, 4089.487, 4171.154, 4246.795
1722051828.8784,2024-07-26 20:43:48.878,0,false,0.0,4203.205, 4342.82, 4090.897, 4171.923, 4255.769
1722051828.8862,2024-07-26 20:43:48.886,1,false,0.0,4202.051, 4336.923, 4087.179, 4171.026, 4254.103
1722051828.894,2024-07-26 20:43:48.894,2,false,0.0,4202.564, 4343.333, 4087.564, 4170.256, 4241.154
1722051828.9018,2024-07-26 20:43:48.901,3,false,0.0,4205.769, 4350.0, 4091.154, 4176.282, 4237.564
1722051828.9096,2024-07-26 20:43:48.909,4,false,0.0,4206.282, 4352.051, 4087.179, 4179.615, 4246.41
1722051828.9174,2024-07-26 20:43:48.917,5,false,0.0,4205.128, 4349.231, 4081.923, 4172.564, 4252.436
1722051828.9252,2024-07-26 20:43:48.925,6,false,0.0,4206.923, 4339.487, 4086.539, 4169.103, 4249.615
1722051828.933,2024-07-26 20:43:48.933,7,false,0.0,4212.564, 4335.641, 4096.41, 4177.82, 4247.692
1722051828.9409,2024-07-26 20:43:48.940,8,false,0.0,4219.744, 4349.744, 4103.333, 4187.564, 4255.641
1722051828.9487,2024-07-26 20:43:48.948,9,false,0.0,4217.18, 4359.744, 4100.641, 4182.564, 4256.667
1722051828.9565,2024-07-26 20:43:48.956,10,false,0.0,4202.051, 4350.128, 4090.769, 4167.949, 4233.718
1722051828.9643,2024-07-26 20:43:48.964,11,false,0.0,4191.667, 4341.795, 4084.615, 4165.641, 4212.82
1722051828.9721,2024-07-26 20:43:48.972,12,false,0.0,4190.385, 4340.0, 4080.128, 4170.0, 4213.974
1722051828.9799,2024-07-26 20:43:48.979,13,false,0.0,4192.051, 4338.461, 4077.051, 4164.615, 4217.308
1722051828.9877,2024-07-26 20:43:48.987,14,false,0.0,4198.077, 4349.487, 4083.333, 4162.051, 4217.949
1722051828.9955,2024-07-26 20:43:48.995,15,false,0.0,4196.539, 4357.308, 4085.385, 4164.872, 4222.18
1722051829.0034,2024-07-26 20:43:49.003,16,false,0.0,4186.795, 4342.949, 4080.769, 4162.308, 4222.82
1722051829.0112,2024-07-26 20:43:49.011,17,false,0.0,4192.949, 4338.077, 4090.385, 4169.615, 4225.641
1722051829.019,2024-07-26 20:43:49.019,18,false,0.0,4204.103, 4350.128, 4094.744, 4180.256, 4230.0
1722051829.0268,2024-07-26 20:43:49.026,19,false,0.0,4199.359, 4348.718, 4080.513, 4168.59, 4221.539
1722051829.0346,2024-07-26 20:43:49.034,20,false,0.0,4200.897, 4342.18, 4085.641, 4158.718, 4217.949
1722051829.0424,2024-07-26 20:43:49.042,21,false,0.0,4211.667, 4342.949, 4105.769, 4170.256, 4230.385
1722051829.0502,2024-07-26 20:43:49.050,22,false,0.0,4206.282, 4338.59, 4102.949, 4175.128, 4234.231
1722051829.058,2024-07-26 20:43:49.058,23,false,0.0,4197.692, 4337.82, 4094.103, 4172.051, 4229.744
1722051829.0659,2024-07-26 20:43:49.065,24,false,0.0,4202.564, 4346.026, 4096.154, 4177.82, 4228.461
1722051829.0737,2024-07-26 20:43:49.073,25,false,0.0,4204.103, 4344.872, 4091.539, 4176.923, 4220.513
1722051829.0815,2024-07-26 20:43:49.081,26,false,0.0,4198.846, 4336.282, 4088.205, 4168.333, 4218.333
1722051829.0893,2024-07-26 20:43:49.089,27,false,0.0,4200.769, 4335.769, 4097.692, 4176.282, 4231.667
1722051829.0971,2024-07-26 20:43:49.097,28,false,0.0,4213.974, 4346.923, 4109.872, 4192.051, 4236.026
1722051829.1049,2024-07-26 20:43:49.104,29,false,0.0,4223.974, 4355.513, 4113.077, 4187.308, 4231.154
1722051829.1127,2024-07-26 20:43:49.112,30,false,0.0,4212.82, 4342.692, 4095.769, 4165.128, 4232.18
1722051829.1205,2024-07-26 20:43:49.120,31,false,0.0,4198.333, 4326.282, 4075.256, 4153.974, 4228.974
1722051829.1284,2024-07-26 20:43:49.128,32,false,0.0,4207.308, 4333.205, 4081.923, 4162.564, 4224.744
1722051829.1362,2024-07-26 20:43:49.136,33,false,0.0,4220.0, 4346.795, 4094.359, 4172.436, 4230.256
1722051829.144,2024-07-26 20:43:49.144,34,false,0.0,4216.154, 4353.846, 4091.282, 4173.59, 4233.077
1722051829.1518,2024-07-26 20:43:49.151,35,false,0.0,4212.308, 4358.461, 4094.487, 4171.282, 4232.051
1722051829.1596,2024-07-26 20:43:49.159,36,false,0.0,4209.872, 4346.795, 4097.436, 4165.897, 4233.974
1722051829.1674,2024-07-26 20:43:49.167,37,false,0.0,4200.128, 4330.385, 4083.718, 4162.82, 4228.205
1722051829.1752,2024-07-26 20:43:49.175,38,false,0.0,4199.103, 4339.359, 4078.974, 4169.744, 4221.923
1722051829.183,2024-07-26 20:43:49.183,39,false,0.0,4208.846, 4353.974, 4089.359, 4176.026, 4226.154
1722051829.1909,2024-07-26 20:43:49.190,40,false,0.0,4210.128, 4350.256, 4089.487, 4172.949, 4224.487
1722051829.1987,2024-07-26 20:43:49.198,41,false,0.0,4201.154, 4340.769, 4084.103, 4168.718, 4217.692
1722051829.2065,2024-07-26 20:43:49.206,42,false,0.0,4197.051, 4336.795, 4090.513, 4172.436, 4224.615
1722051829.2143,2024-07-26 20:43:49.214,43,false,0.0,4204.487, 4344.615, 4100.641, 4182.051, 4231.795
1722051829.2221,2024-07-26 20:43:49.222,44,false,0.0,4211.282, 4357.051, 4097.949, 4183.846, 4224.359
1722051829.2299,2024-07-26 20:43:49.229,45,false,0.0,4209.103, 4352.308, 4090.641, 4176.026, 4220.769
1722051829.2377,2024-07-26 20:43:49.237,46,false,0.0,4210.256, 4343.59, 4100.385, 4177.18, 4228.846
1722051829.2455,2024-07-26 20:43:49.245,47,false,0.0,4211.026, 4345.513, 4109.487, 4183.333, 4228.077
1722051829.2534,2024-07-26 20:43:49.253,48,false,0.0,4195.897, 4340.641, 4090.513, 4176.667, 4215.641
1722051829.2612,2024-07-26 20:43:49.261,49,false,0.0,4191.026, 4342.564, 4077.436, 4174.744, 4217.692
1722051829.269,2024-07-26 20:43:49.269,50,false,0.0,4213.077, 4362.949, 4097.82, 4189.103, 4236.41
1722051829.2768,2024-07-26 20:43:49.276,51,false,0.0,4221.667, 4360.769, 4108.461, 4191.795, 4241.282
1722051829.2846,2024-07-26 20:43:49.284,52,false,0.0,4206.923, 4340.0, 4094.103, 4179.359, 4228.59
1722051829.2924,2024-07-26 20:43:49.292,53,false,0.0,4205.0, 4345.513, 4091.41, 4174.744, 4224.744
1722051829.3002,2024-07-26 20:43:49.300,54,false,0.0,4214.615, 4358.205, 4098.077, 4174.615, 4230.256
1722051829.308,2024-07-26 20:43:49.308,55,false,0.0,4213.718, 4350.769, 4092.436, 4171.026, 4228.333
1722051829.3159,2024-07-26 20:43:49.315,56,false,0.0,4207.692, 4347.18, 4087.564, 4173.205, 4220.897
1722051829.3237,2024-07-26 20:43:49.323,57,false,0.0,4206.282, 4352.82, 4093.59, 4179.744, 4215.769
1722051829.3315,2024-07-26 20:43:49.331,58,false,0.0,4208.205, 4351.667, 4099.103, 4182.949, 4217.564
1722051829.3393,2024-07-26 20:43:49.339,59,false,0.0,4206.282, 4349.359, 4098.205, 4182.051, 4225.769
1722051829.3471,2024-07-26 20:43:49.347,60,false,0.0,4200.0, 4350.256, 4095.256, 4178.59, 4226.923
1722051829.3549,2024-07-26 20:43:49.354,61,false,0.0,4204.615, 4347.692, 4096.667, 4177.949, 4219.744
1722051829.3627,2024-07-26 20:43:49.362,62,false,0.0,4216.667, 4343.59, 4103.59, 4179.231, 4221.154
1722051829.3705,2024-07-26 20:43:49.370,63,false,0.0,4217.692, 4347.949, 4112.18, 4179.744, 4232.051
1722051829.3784,2024-07-26 20:43:49.378,64,false,0.0,4218.333, 4361.923, 4118.461, 4189.872, 4240.513
1722051829.3862,2024-07-26 20:43:49.386,65,false,0.0,4222.82, 4366.282, 4111.923, 4201.026, 4238.718
1722051829.394,2024-07-26 20:43:49.394,66,false,0.0,4213.205, 4355.641, 4096.026, 4190.128, 4226.539
1722051829.4018,2024-07-26 20:43:49.401,67,false,0.0,4207.18, 4352.949, 4096.923, 4176.282, 4224.615
1722051829.4096,2024-07-26 20:43:49.409,68,false,0.0,4218.461, 4355.385, 4107.692, 4181.667, 4237.564
1722051829.4174,2024-07-26 20:43:49.417,69,false,0.0,4217.564, 4349.615, 4102.308, 4186.154, 4233.974
1722051829.4252,2024-07-26 20:43:49.425,70,false,0.0,4208.846, 4353.461, 4101.923, 4186.795, 4220.385
1722051829.433,2024-07-26 20:43:49.433,71,false,0.0,4213.718, 4359.615, 4115.641, 4192.564, 4226.667
1722051829.4409,2024-07-26 20:43:49.440,72,false,0.0,4211.154, 4344.744, 4106.795, 4185.769, 4232.949
1722051829.4487,2024-07-26 20:43:49.448,73,false,0.0,4204.103, 4338.205, 4091.923, 4181.667, 4231.923
1722051829.4565,2024-07-26 20:43:49.456,74,false,0.0,4216.539, 4352.692, 4103.205, 4200.513, 4247.564
1722051829.4643,2024-07-26 20:43:49.464,75,false,0.0,4221.282, 4353.974, 4106.795, 4200.641, 4256.795
1722051829.4721,2024-07-26 20:43:49.472,76,false,0.0,4209.872, 4353.59, 4097.436, 4178.461, 4246.539
1722051829.4799,2024-07-26 20:43:49.479,77,false,0.0,4209.872, 4364.231, 4105.385, 4179.487, 4249.487
1722051829.4877,2024-07-26 20:43:49.487,78,false,0.0,4203.718, 4351.026, 4101.795, 4182.436, 4251.41
1722051829.4955,2024-07-26 20:43:49.495,79,false,0.0,4187.308, 4335.513, 4080.256, 4164.231, 4236.41
1722051829.5034,2024-07-26 20:43:49.503,80,false,0.0,4194.359, 4352.692, 4084.615, 4161.154, 4235.128
1722051829.5112,2024-07-26 20:43:49.511,81,false,0.0,4203.077, 4355.128, 4095.256, 4169.872, 4238.205
1722051829.519,2024-07-26 20:43:49.519,82,false,0.0,4190.256, 4332.564, 4083.846, 4165.897, 4228.974
1722051829.5268,2024-07-26 20:43:49.526,83,false,0.0,4184.487, 4334.744, 4079.359, 4164.103, 4230.641
1722051829.5346,2024-07-26 20:43:49.534,84,false,0.0,4184.231, 4346.282, 4084.487, 4166.923, 4234.359
1722051829.5424,2024-07-26 20:43:49.542,85,false,0.0,4183.205, 4345.513, 4089.103, 4175.385, 4235.385
1722051829.5502,2024-07-26 20:43:49.550,86,false,0.0,4200.385, 4353.718, 4100.641, 4194.615, 4256.282
1722051829.558,2024-07-26 20:43:49.558,87,false,0.0,4209.615, 4351.667, 4097.692, 4190.769, 4264.231
1722051829.5659,2024-07-26 20:43:49.565,88,false,0.0,4195.256, 4335.769, 4085.0, 4164.872, 4243.974
1722051829.5737,2024-07-26 20:43:49.573,89,false,0.0,4191.539, 4345.128, 4094.103, 4161.026, 4239.359
1722051829.5815,2024-07-26 20:43:49.581,90,false,0.0,4191.795, 4356.41, 4098.846, 4165.128, 4239.487
1722051829.5893,2024-07-26 20:43:49.589,91,false,0.0,4182.82, 4345.385, 4087.308, 4157.18, 4227.949
1722051829.5971,2024-07-26 20:43:49.597,92,false,0.0,4190.769, 4350.769, 4094.615, 4162.692, 4237.564
1722051829.6049,2024-07-26 20:43:49.604,93,false,0.0,4203.974, 4364.615, 4104.103, 4176.282, 4250.385
1722051829.6127,2024-07-26 20:43:49.612,94,false,0.0,4199.615, 4352.82, 4092.051, 4178.333, 4237.436
1722051829.6205,2024-07-26 20:43:49.620,95,false,0.0,4188.077, 4339.103, 4078.59, 4166.923, 4219.231
1722051829.6284,2024-07-26 20:43:49.628,96,false,0.0,4172.949, 4337.051, 4068.846, 4143.333, 4203.333
1722051829.6362,2024-07-26 20:43:49.636,97,false,0.0,4175.385, 4338.205, 4075.256, 4142.692, 4211.41
1722051829.644,2024-07-26 20:43:49.644,98,false,0.0,4204.744, 4349.359, 4102.308, 4174.487, 4252.18
1722051829.6518,2024-07-26 20:43:49.651,99,false,0.0,4212.18, 4358.59, 4107.564, 4183.333, 4261.667
1722051829.6596,2024-07-26 20:43:49.659,100,false,0.0,4204.231, 4358.846, 4099.359, 4177.436, 4244.103
1722051829.6674,2024-07-26 20:43:49.667,101,false,0.0,4223.333, 4365.769, 4112.949, 4197.308, 4263.077
1722051829.6752,2024-07-26 20:43:49.675,102,false,0.0,4226.41, 4364.744, 4109.231, 4198.718, 4272.18
1722051829.683,2024-07-26 20:43:49.683,103,false,0.0,4200.0, 4348.846, 4084.231, 4173.205, 4241.282
1722051829.6909,2024-07-26 20:43:49.690,104,false,0.0,4200.128, 4348.59, 4091.795, 4174.359, 4237.692
1722051829.6987,2024-07-26 20:43:49.698,105,false,0.0,4206.026, 4359.103, 4104.744, 4179.487, 4247.949
1722051829.7065,2024-07-26 20:43:49.706,106,false,0.0,4183.461, 4352.051, 4085.128, 4162.436, 4224.231
1722051829.7143,2024-07-26 20:43:49.714,107,false,0.0,4173.59, 4334.872, 4070.128, 4159.872, 4207.564
1722051829.7221,2024-07-26 20:43:49.722,108,false,0.0,4180.641, 4327.82, 4073.333, 4166.154, 4213.59
1722051829.7299,2024-07-26 20:43:49.729,109,false,0.0,4177.436, 4336.154, 4077.308, 4159.103, 4212.692
1722051829.7377,2024-07-26 20:43:49.737,110,false,0.0,4182.564, 4348.461, 4088.333, 4162.949, 4217.82
1722051829.7455,2024-07-26 20:43:49.745,111,false,0.0,4203.461, 4350.769, 4105.513, 4181.41, 4236.539
1722051829.7534,2024-07-26 20:43:49.753,112,false,0.0,4216.795, 4349.744, 4115.897, 4190.897, 4245.769
1722051829.7612,2024-07-26 20:43:49.761,113,false,0.0,4208.077, 4346.282, 4110.513, 4184.359, 4235.385
1722051829.769,2024-07-26 20:43:49.769,114,false,0.0,4182.82, 4332.82, 4091.154, 4170.769, 4213.333
1722051829.7768,2024-07-26 20:43:49.776,115,false,0.0,4174.744, 4329.615, 4084.359, 4172.18, 4203.077
1722051829.7846,2024-07-26 20:43:49.784,116,false,0.0,4195.128, 4345.385, 4098.205, 4186.154, 4213.077
1722051829.7924,2024-07-26 20:43:49.792,117,false,0.0,4206.026, 4355.0, 4107.949, 4182.308, 4220.897
1722051829.8002,2024-07-26 20:43:49.800,118,false,0.0,4201.282, 4351.154, 4112.051, 4169.744, 4222.949
1722051829.808,2024-07-26 20:43:49.808,119,false,0.0,4202.436, 4341.667, 4113.461, 4174.359, 4226.282
1722051829.8159,2024-07-26 20:43:49.815,120,false,0.0,4200.0, 4332.82, 4100.897, 4179.744, 4217.82
1722051829.8237,2024-07-26 20:43:49.823,121,false,0.0,4193.59, 4337.692, 4092.564, 4175.385, 4203.974
1722051829.8315,2024-07-26 20:43:49.831,122,false,0.0,4200.513, 4347.436, 4103.718, 4178.974, 4206.923
1722051829.8393,2024-07-26 20:43:49.839,123,false,0.0,4213.333, 4345.897, 4115.641, 4191.154, 4222.436
1722051829.8471,2024-07-26 20:43:49.847,124,false,0.0,4219.487, 4341.795, 4116.923, 4192.436, 4229.231
1722051829.8549,2024-07-26 20:43:49.854,125,false,0.0,4211.923, 4335.641, 4107.436, 4176.539, 4214.103
1722051829.8627,2024-07-26 20:43:49.862,126,false,0.0,4194.744, 4331.282, 4097.949, 4165.513, 4195.256
1722051829.8705,2024-07-26 20:43:49.870,127,false,0.0,4194.615, 4342.436, 4105.256, 4177.692, 4202.308
1722051829.8784,2024-07-26 20:43:49.878,0,false,0.0,4212.051, 4344.231, 4113.718, 4193.461, 4219.231
1722051829.8862,2024-07-26 20:43:49.886,1,false,0.0,4218.461, 4329.103, 4109.744, 4200.128, 4222.436
1722051829.894,2024-07-26 20:43:49.894,2,false,0.0,4215.897, 4338.846, 4111.282, 4204.872, 4221.795
1722051829.9018,2024-07-26 20:43:49.901,3,false,0.0,4210.385, 4358.077, 4107.564, 4193.974, 4215.0
1722051829.9096,2024-07-26 20:43:49.909,4,false,0.0,4198.718, 4347.308, 4089.744, 4175.897, 4205.769
1722051829.9174,2024-07-26 20:43:49.917,5,false,0.0,4200.897, 4336.282, 4089.615, 4185.513, 4216.667
1722051829.9252,2024-07-26 20:43:49.925,6,false,0.0,4213.846, 4344.359, 4102.949, 4199.615, 4224.872
1722051829.933,2024-07-26 20:43:49.933,7,false,0.0,4210.513, 4350.256, 4104.359, 4189.744, 4213.974
1722051829.9409,2024-07-26 20:43:49.940,8,false,0.0,4204.231, 4353.974, 4107.18, 4189.103, 4217.436
1722051829.9487,2024-07-26 20:43:49.948,9,false,0.0,4209.487, 4355.769, 4113.205, 4201.667, 4225.513
1722051829.9565,2024-07-26 20:43:49.956,10,false,0.0,4208.077, 4351.923, 4111.795, 4195.769, 4212.692
1722051829.9643,2024-07-26 20:43:49.964,11,false,0.0,4202.18, 4350.897, 4112.949, 4182.436, 4208.461
1722051829.9721,2024-07-26 20:43:49.972,12,false,0.0,4201.795, 4342.308, 4110.0, 4177.949, 4215.128
1722051829.9799,2024-07-26 20:43:49.979,13,false,0.0,4202.82, 4332.949, 4099.359, 4175.385, 4210.385
1722051829.9877,2024-07-26 20:43:49.987,14,false,0.0,4209.615, 4348.718, 4103.205, 4178.846, 4216.026
1722051829.9955,2024-07-26 20:43:49.995,15,false,0.0,4218.333, 4363.846, 4113.461, 4187.308, 4233.59
1722051830.0034,2024-07-26 20:43:50.003,16,false,0.0,4216.026, 4353.333, 4112.051, 4190.641, 4232.564
1722051830.0112,2024-07-26 20:43:50.011,17,false,0.0,4209.872, 4343.846, 4107.436, 4188.333, 4220.128
1722051830.019,2024-07-26 20:43:50.019,18,false,0.0,4204.231, 4341.923, 4100.513, 4179.103, 4211.026
1722051830.0268,2024-07-26 20:43:50.026,19,false,0.0,4194.231, 4336.026, 4092.179, 4169.744, 4203.461
1722051830.0346,2024-07-26 20:43:50.034,20,false,0.0,4187.564, 4335.641, 4089.359, 4168.461, 4202.692
1722051830.0424,2024-07-26 20:43:50.042,21,false,0.0,4190.256, 4338.974, 4083.461, 4164.231, 4206.795
1722051830.0502,2024-07-26 20:43:50.050,22,false,0.0,4200.769, 4344.359, 4085.385, 4163.205, 4213.59
1722051830.058,2024-07-26 20:43:50.058,23,false,0.0,4213.333, 4354.872, 4105.128, 4177.82, 4225.256
1722051830.0659,2024-07-26 20:43:50.065,24,false,0.0,4213.718, 4351.026, 4109.615, 4184.615, 4227.82
1722051830.0737,2024-07-26 20:43:50.073,25,false,0.0,4206.667, 4336.795, 4098.205, 4177.436, 4219.872
1722051830.0815,2024-07-26 20:43:50.081,26,false,0.0,4211.154, 4342.82, 4109.487, 4181.795, 4219.231
1722051830.0893,2024-07-26 20:43:50.089,27,false,0.0,4217.692, 4356.154, 4128.974, 4186.154, 4223.205
1722051830.0971,2024-07-26 20:43:50.097,28,false,0.0,4211.539, 4352.564, 4123.974, 4174.744, 4222.308
1722051830.1049,2024-07-26 20:43:50.104,29,false,0.0,4202.564, 4345.256, 4107.949, 4167.692, 4215.897
1722051830.1127,2024-07-26 20:43:50.112,30,false,0.0,4199.103, 4347.308, 4098.846, 4167.308, 4205.256
1722051830.1205,2024-07-26 20:43:50.120,31,false,0.0,4198.846, 4354.103, 4096.795, 4163.461, 4204.103
1722051830.1284,2024-07-26 20:43:50.128,32,false,0.0,4200.0, 4354.487, 4098.461, 4166.026, 4212.949
1722051830.1362,2024-07-26 20:43:50.136,33,false,0.0,4200.641, 4344.744, 4098.461, 4174.359, 4212.564
1722051830.144,2024-07-26 20:43:50.144,34,false,0.0,4203.077, 4343.333, 4103.59, 4179.231, 4212.949
1722051830.1518,2024-07-26 20:43:50.151,35,false,0.0,4206.539, 4354.615, 4113.718, 4183.205, 4225.128
1722051830.1596,2024-07-26 20:43:50.159,36,false,0.0,4206.026, 4354.872, 4112.564, 4185.128, 4228.461
1722051830.1674,2024-07-26 20:43:50.167,37,false,0.0,4208.205, 4343.461, 4104.359, 4186.154, 4223.718
1722051830.1752,2024-07-26 20:43:50.175,38,false,0.0,4212.18, 4338.974, 4100.769, 4187.949, 4226.667
1722051830.183,2024-07-26 20:43:50.183,39,false,0.0,4202.82, 4338.59, 4094.615, 4181.282, 4225.0
1722051830.1909,2024-07-26 20:43:50.190,40,false,0.0,4190.385, 4337.051, 4088.974, 4172.564, 4215.769
1722051830.1987,2024-07-26 20:43:50.198,41,false,0.0,4196.41, 4342.82, 4096.154, 4179.103, 4216.41
1722051830.2065,2024-07-26 20:43:50.206,42,false,0.0,4209.872, 4356.795, 4107.564, 4189.103, 4223.461
1722051830.2143,2024-07-26 20:43:50.214,43,false,0.0,4211.282, 4361.282, 4107.436, 4182.564, 4222.308
1722051830.2221,2024-07-26 20:43:50.222,44,false,0.0,4202.18, 4345.769, 4092.949, 4167.436, 4211.795
1722051830.2299,2024-07-26 20:43:50.229,45,false,0.0,4196.795, 4337.564, 4082.692, 4167.564, 4206.539
1722051830.2377,2024-07-26 20:43:50.237,46,false,0.0,4204.615, 4353.077, 4092.051, 4185.641, 4218.205
1722051830.2455,2024-07-26 20:43:50.245,47,false,0.0,4212.692, 4359.615, 4097.692, 4190.0, 4226.154
1722051830.2534,2024-07-26 20:43:50.253,48,false,0.0,4211.41, 4353.718, 4088.846, 4172.308, 4217.564
1722051830.2612,2024-07-26 20:43:50.261,49,false,0.0,4214.487, 4363.333, 4092.949, 4169.103, 4220.0
1722051830.269,2024-07-26 20:43:50.269,50,false,0.0,4217.436, 4363.846, 4100.385, 4181.154, 4229.615
1722051830.2768,2024-07-26 20:43:50.276,51,false,0.0,4203.333, 4340.256, 4086.154, 4173.59, 4212.18
1722051830.2846,2024-07-26 20:43:50.284,52,false,0.0,4189.744, 4337.436, 4078.205, 4158.077, 4190.385
1722051830.2924,2024-07-26 20:43:50.292,53,false,0.0,4194.103, 4350.256, 4091.923, 4163.846, 4197.82
1722051830.3002,2024-07-26 20:43:50.300,54,false,0.0,4205.513, 4340.641, 4100.641, 4180.0, 4213.846
1722051830.308,2024-07-26 20:43:50.308,55,false,0.0,4217.82, 4336.923, 4100.897, 4190.256, 4223.59
1722051830.3159,2024-07-26 20:43:50.315,56,false,0.0,4223.077, 4356.539, 4101.282, 4190.0, 4230.128
1722051830.3237,2024-07-26 20:43:50.323,57,false,0.0,4214.487, 4358.718, 4102.692, 4182.051, 4224.103
1722051830.3315,2024-07-26 20:43:50.331,58,false,0.0,4212.308, 4340.0, 4113.461, 4181.923, 4217.564
1722051830.3393,2024-07-26 20:43:50.339,59,false,0.0,4220.0, 4332.436, 4123.333, 4188.846, 4224.487
1722051830.3471,2024-07-26 20:43:50.347,60,false,0.0,4214.872, 4334.872, 4120.256, 4184.872, 4223.461
1722051830.3549,2024-07-26 20:43:50.354,61,false,0.0,4206.539, 4335.769, 4121.026, 4174.487, 4213.846
1722051830.3627,2024-07-26 20:43:50.362,62,false,0.0,4212.051, 4337.308, 4122.18, 4171.539, 4220.385
1722051830.3705,2024-07-26 20:43:50.370,63,false,0.0,4214.744, 4336.923, 4107.308, 4174.359, 4230.641
1722051830.3784,2024-07-26 20:43:50.378,64,false,0.0,4206.923, 4331.795, 4093.974, 4176.026, 4222.692
1722051830.3862,2024-07-26 20:43:50.386,65,false,0.0,4200.128, 4330.256, 4093.333, 4170.641, 4209.359
1722051830.394,2024-07-26 20:43:50.394,66,false,0.0,4200.256, 4341.41, 4096.154, 4167.051, 4209.487
1722051830.4018,2024-07-26 20:43:50.401,67,false,0.0,4209.103, 4356.154, 4102.949, 4178.205, 4219.487
1722051830.4096,2024-07-26 20:43:50.409,68,false,0.0,4218.205, 4356.795, 4105.641, 4188.59, 4223.59
1722051830.4174,2024-07-26 20:43:50.417,69,false,0.0,4216.41, 4347.051, 4101.154, 4184.231, 4219.872
1722051830.4252,2024-07-26 20:43:50.425,70,false,0.0,4209.872, 4343.846, 4104.231, 4177.949, 4219.744
1722051830.433,2024-07-26 20:43:50.433,71,false,0.0,4205.641, 4347.692, 4104.487, 4173.077, 4223.718
1722051830.4409,2024-07-26 20:43:50.440,72,false,0.0,4207.18, 4354.615, 4094.359, 4169.103, 4229.872
1722051830.4487,2024-07-26 20:43:50.448,73,false,0.0,4216.154, 4361.667, 4095.897, 4171.667, 4236.282
1722051830.4565,2024-07-26 20:43:50.456,74,false,0.0,4216.795, 4360.128, 4105.0, 4170.513, 4232.82
1722051830.4643,2024-07-26 20:43:50.464,75,false,0.0,4206.41, 4352.82, 4101.795, 4165.513, 4229.231
1722051830.4721,2024-07-26 20:43:50.472,76,false,0.0,4205.769, 4347.949, 4093.59, 4168.461, 4237.18
1722051830.4799,2024-07-26 20:43:50.479,77,false,0.0,4210.385, 4345.641, 4084.359, 4165.641, 4235.897
1722051830.4877,2024-07-26 20:43:50.487,78,false,0.0,4211.154, 4353.077, 4082.949, 4160.385, 4229.872
1722051830.4955,2024-07-26 20:43:50.495,79,false,0.0,4216.923, 4360.256, 4096.282, 4174.744, 4240.0
1722051830.5034,2024-07-26 20:43:50.503,80,false,0.0,4212.564, 4341.795, 4091.41, 4181.667, 4237.18
1722051830.5112,2024-07-26 20:43:50.511,81,false,0.0,4195.641, 4322.564, 4069.231, 4164.615, 4216.667
1722051830.519,2024-07-26 20:43:50.519,82,false,0.0,4196.539, 4333.333, 4077.308, 4159.615, 4214.872
1722051830.5268,2024-07-26 20:43:50.526,83,false,0.0,4201.026, 4339.615, 4095.128, 4165.385, 4211.41
1722051830.5346,2024-07-26 20:43:50.534,84,false,0.0,4193.974, 4329.615, 4088.461, 4165.385, 4197.308
1722051830.5424,2024-07-26 20:43:50.542,85,false,0.0,4209.359, 4340.0, 4092.564, 4179.615, 4216.026
1722051830.5502,2024-07-26 20:43:50.550,86,false,0.0,4227.692, 4351.667, 4104.359, 4189.872, 4237.692
1722051830.558,2024-07-26 20:43:50.558,87,false,0.0,4208.974, 4334.103, 4089.615, 4175.0, 4220.0
1722051830.5659,2024-07-26 20:43:50.565,88,false,0.0,4197.436, 4325.256, 4081.539, 4176.41, 4211.154
1722051830.5737,2024-07-26 20:43:50.573,89,false,0.0,4214.359, 4340.769, 4093.077, 4194.744, 4222.949
1722051830.5815,2024-07-26 20:43:50.581,90,false,0.0,4214.359, 4344.872, 4090.256, 4187.564, 4219.487
1722051830.5893,2024-07-26 20:43:50.589,91,false,0.0,4206.154, 4338.718, 4090.513, 4181.41, 4222.82
1722051830.5971,2024-07-26 20:43:50.597,92,false,0.0,4218.205, 4344.231, 4108.077, 4198.974, 4238.846
1722051830.6049,2024-07-26 20:43:50.604,93,false,0.0,4226.026, 4354.487, 4108.846, 4199.359, 4237.051
1722051830.6127,2024-07-26 20:43:50.612,94,false,0.0,4221.667, 4358.461, 4096.282, 4183.846, 4236.41
1722051830.6205,2024-07-26 20:43:50.620,95,false,0.0,4217.949, 4351.282, 4090.256, 4184.359, 4241.282
1722051830.6284,2024-07-26 20:43:50.628,96,false,0.0,4206.026, 4336.667, 4078.974, 4183.205, 4225.0
1722051830.6362,2024-07-26 20:43:50.636,97,false,0.0,4198.718, 4336.41, 4075.641, 4175.513, 4220.0
1722051830.644,2024-07-26 20:43:50.644,98,false,0.0,4214.487, 4353.974, 4093.461, 4187.949, 4250.256
1722051830.6518,2024-07-26 20:43:50.651,99,false,0.0,4225.897, 4363.974, 4101.026, 4201.154, 4266.923
1722051830.6596,2024-07-26 20:43:50.659,100,false,0.0,4215.769, 4359.487, 4095.385, 4188.59, 4254.872
1722051830.6674,2024-07-26 20:43:50.667,101,false,0.0,4210.513, 4352.82, 4101.923, 4182.436, 4251.667
1722051830.6752,2024-07-26 20:43:50.675,102,false,0.0,4216.667, 4350.0, 4103.461, 4194.744, 4257.308
1722051830.683,2024-07-26 20:43:50.683,103,false,0.0,4211.667, 4351.539, 4086.026, 4187.82, 4248.718
1722051830.6909,2024-07-26 20:43:50.690,104,false,0.0,4199.103, 4354.103, 4079.359, 4168.718, 4237.18
1722051830.6987,2024-07-26 20:43:50.698,105,false,0.0,4203.461, 4358.718, 4093.59, 4177.18, 4244.615
1722051830.7065,2024-07-26 20:43:50.706,106,false,0.0,4221.154, 4372.436, 4106.539, 4196.282, 4264.615
1722051830.7143,2024-07-26 20:43:50.714,107,false,0.0,4225.897, 4379.103, 4107.82, 4192.051, 4275.897
1722051830.7221,2024-07-26 20:43:50.722,108,false,0.0,4212.308, 4358.461, 4098.333, 4177.051, 4272.692
1722051830.7299,2024-07-26 20:43:50.729,109,false,0.0,4201.667, 4340.641, 4088.461, 4170.641, 4260.769
1722051830.7377,2024-07-26 20:43:50.737,110,false,0.0,4206.154, 4353.846, 4094.359, 4172.051, 4251.923
1722051830.7455,2024-07-26 20:43:50.745,111,false,0.0,4213.333, 4366.41, 4107.18, 4177.436, 4259.359
1722051830.7534,2024-07-26 20:43:50.753,112,false,0.0,4215.0, 4359.103, 4109.103, 4183.461, 4276.539
1722051830.7612,2024-07-26 20:43:50.761,113,false,0.0,4220.256, 4357.051, 4110.0, 4189.487, 4283.205
1722051830.769,2024-07-26 20:43:50.769,114,false,0.0,4224.744, 4357.051, 4113.461, 4192.18, 4277.308
1722051830.7768,2024-07-26 20:43:50.776,115,false,0.0,4217.564, 4344.744, 4108.718, 4186.923, 4271.539
1722051830.7846,2024-07-26 20:43:50.784,116,false,0.0,4214.487, 4346.539, 4108.077, 4186.923, 4273.846
1722051830.7924,2024-07-26 20:43:50.792,117,false,0.0,4219.744, 4366.026, 4116.026, 4193.59, 4275.0
1722051830.8002,2024-07-26 20:43:50.800,118,false,0.0,4207.436, 4362.949, 4111.667, 4183.205, 4256.539
1722051830.808,2024-07-26 20:43:50.808,119,false,0.0,4192.18, 4343.333, 4104.103, 4168.59, 4237.18
1722051830.8159,2024-07-26 20:43:50.815,120,false,0.0,4203.59, 4343.846, 4108.718, 4177.692, 4246.282
1722051830.8237,2024-07-26 20:43:50.823,121,false,0.0,4208.846, 4350.897, 4101.923, 4182.564, 4253.718
1722051830.8315,2024-07-26 20:43:50.831,122,false,0.0,4188.205, 4342.949, 4084.615, 4165.641, 4236.282
1722051830.8393,2024-07-26 20:43:50.839,123,false,0.0,4183.974, 4340.385, 4089.872, 4167.82, 4233.461
1722051830.8471,2024-07-26 20:43:50.847,124,false,0.0,4200.385, 4350.256, 4106.795, 4188.718, 4250.0
1722051830.8549,2024-07-26 20:43:50.854,125,false,0.0,4203.461, 4351.539, 4108.333, 4189.872, 4252.949
1722051830.8627,2024-07-26 20:43:50.862,126,false,0.0,4200.641, 4344.487, 4107.308, 4185.256, 4254.872
1722051830.8705,2024-07-26 20:43:50.870,127,false,0.0,4203.333, 4347.051, 4110.256, 4194.231, 4261.795
1722051830.8784,2024-07-26 20:43:50.878,0,false,0.0,4198.205, 4356.154, 4102.436, 4193.59, 4248.846
1722051830.8862,2024-07-26 20:43:50.886,1,false,0.0,4197.436, 4356.282, 4094.231, 4186.795, 4240.641
1722051830.894,2024-07-26 20:43:50.894,2,false,0.0,4214.231, 4357.436, 4102.051, 4199.103, 4264.103
1722051830.9018,2024-07-26 20:43:50.901,3,false,0.0,4223.974, 4372.051, 4108.974, 4210.385, 4276.154
1722051830.9096,2024-07-26 20:43:50.909,4,false,0.0,4211.539, 4375.641, 4097.949, 4197.564, 4253.718
1722051830.9174,2024-07-26 20:43:50.917,5,false,0.0,4200.128, 4361.026, 4085.256, 4184.359, 4242.18
1722051830.9252,2024-07-26 20:43:50.925,6,false,0.0,4205.897, 4358.205, 4083.461, 4187.308, 4257.308
1722051830.933,2024-07-26 20:43:50.933,7,false,0.0,4212.308, 4357.051, 4078.077, 4186.539, 4258.718
1722051830.9409,2024-07-26 20:43:50.940,8,false,0.0,4206.795, 4341.667, 4069.744, 4176.282, 4244.615
1722051830.9487,2024-07-26 20:43:50.948,9,false,0.0,4207.308, 4350.128, 4079.359, 4177.692, 4253.205
1722051830.9565,2024-07-26 20:43:50.956,10,false,0.0,4221.795, 4376.795, 4094.872, 4188.461, 4271.41
1722051830.9643,2024-07-26 20:43:50.964,11,false,0.0,4225.641, 4369.744, 4092.179, 4187.82, 4264.103
1722051830.9721,2024-07-26 20:43:50.972,12,false,0.0,4214.615, 4351.41, 4087.051, 4189.103, 4254.359
1722051830.9799,2024-07-26 20:43:50.979,13,false,0.0,4210.256, 4357.949, 4090.256, 4203.974, 4260.513
1722051830.9877,2024-07-26 20:43:50.987,14,false,0.0,4211.41, 4361.539, 4083.205, 4204.744, 4256.282
1722051830.9955,2024-07-26 20:43:50.995,15,false,0.0,4207.436, 4357.18, 4073.461, 4187.436, 4241.795
1722051831.0034,2024-07-26 20:43:51.003,16,false,0.0,4201.282, 4362.436, 4075.0, 4177.692, 4231.41
1722051831.0112,2024-07-26 20:43:51.011,17,false,0.0,4191.667, 4359.487, 4071.154, 4171.41, 4217.308
1722051831.019,2024-07-26 20:43:51.019,18,false,0.0,4186.154, 4345.385, 4064.231, 4163.59, 4213.59
1722051831.0268,2024-07-26 20:43:51.026,19,false,0.0,4198.974, 4342.308, 4075.256, 4168.205, 4228.718
1722051831.0346,2024-07-26 20:43:51.034,20,false,0.0,4210.128, 4349.744, 4089.615, 4172.18, 4228.974
1722051831.0424,2024-07-26 20:43:51.042,21,false,0.0,4197.692, 4355.513, 4090.256, 4164.872, 4213.205
